Black Body Radiation Experiment Wed, Sep 23, 2020 11:34 AM
Sensor Position (Degrees)	Light Intensity (Volts)
0.00000	-0.02115
0.00000	-0.02259
0.00000	-0.01712
0.00000	-0.01873
0.00000	-0.01986
0.00000	-0.01647
0.00000	-0.02115
0.00000	-0.02195
0.00000	-0.01760
0.00000	-0.01889
0.00000	-0.02147
0.00000	-0.02034
0.00000	-0.01889
0.00000	-0.02034
0.00000	-0.02034
0.00000	-0.02131
0.00000	-0.01712
0.00000	-0.02066
0.00000	-0.01808
0.00000	-0.01663
0.00000	-0.01744
0.00000	-0.02179
0.00000	-0.01889
0.00000	-0.01583
0.00000	-0.02308
0.00000	-0.02163
0.00000	-0.02066
0.00000	-0.02034
0.00000	-0.02115
0.00000	-0.01647
0.00000	-0.01921
0.00000	-0.02002
0.00000	-0.02002
0.00000	-0.02131
0.00000	-0.02050
0.00000	-0.01744
0.00000	-0.02163
0.00000	-0.01857
0.00000	-0.01760
0.00000	-0.01728
0.00000	-0.01937
0.00000	-0.01744
0.00000	-0.01583
0.00000	-0.01792
0.00000	-0.02002
0.00000	-0.01825
0.00000	-0.02195
0.00000	-0.01841
0.00000	-0.02485
0.00000	-0.01776
0.00000	-0.01776
0.00000	-0.01744
0.00000	-0.01937
0.00000	-0.01986
0.00000	-0.02179
0.00000	-0.01841
0.00000	-0.01760
0.00000	-0.02050
0.00000	-0.02324
0.00000	-0.02163
0.00000	-0.02147
0.00000	-0.02276
0.00000	-0.01808
0.00000	-0.01986
0.00000	-0.01647
0.00000	-0.01663
0.00000	-0.01857
0.00000	-0.02050
0.00000	-0.02115
0.00000	-0.02243
0.00000	-0.01986
0.00000	-0.01712
0.00000	-0.02034
0.00000	-0.01889
0.00000	-0.01873
0.00000	-0.02050
0.00000	-0.02018
0.00000	-0.01776
0.00000	-0.01905
0.00000	-0.01889
0.00000	-0.02308
0.00000	-0.02018
0.00000	-0.02340
0.00000	-0.01921
0.00000	-0.02115
0.00000	-0.01937
0.00000	-0.01953
0.00000	-0.02147
0.00000	-0.01776
0.00000	-0.02082
0.00000	-0.02356
0.00000	-0.01873
0.00000	-0.01647
0.00000	-0.02082
0.00000	-0.01905
0.00000	-0.01986
0.00000	-0.01776
0.00000	-0.01970
0.00000	-0.01873
0.00000	-0.01889
0.00000	-0.02163
0.00000	-0.02098
0.00000	-0.02227
0.00000	-0.01712
0.00000	-0.02195
0.00000	-0.01728
0.00000	-0.02453
0.00000	-0.01776
0.00000	-0.01792
0.00000	-0.01825
0.00000	-0.01760
0.00000	-0.01825
0.00000	-0.02034
0.00000	-0.01728
0.00000	-0.01937
0.00000	-0.02098
0.00000	-0.01905
0.00000	-0.02002
0.00000	-0.02098
0.00000	-0.02131
0.00000	-0.01857
0.00000	-0.01663
0.00000	-0.01986
0.00000	-0.01680
0.00000	-0.01873
0.00000	-0.02098
0.00000	-0.02243
0.00000	-0.01663
0.00000	-0.02115
0.00000	-0.02066
0.00000	-0.01535
0.00000	-0.01535
0.00000	-0.01486
0.00000	-0.01808
0.00000	-0.02082
0.00000	-0.01986
0.00000	-0.01986
0.00000	-0.01696
0.00000	-0.01454
0.00000	-0.01921
0.00000	-0.02131
0.00000	-0.02404
0.00000	-0.01857
0.00000	-0.01341
0.00000	-0.01647
0.00000	-0.01953
0.00000	-0.01776
0.00000	-0.01535
0.00000	-0.01825
0.00000	-0.01825
0.00000	-0.01857
0.00000	-0.02163
0.00000	-0.01502
0.00000	-0.01728
0.00000	-0.02050
0.00000	-0.01970
0.00000	-0.01889
0.00000	-0.02163
0.00000	-0.01889
0.00000	-0.01953
0.00000	-0.02050
0.00000	-0.02050
0.00000	-0.02066
0.00000	-0.02163
0.00000	-0.01728
0.00000	-0.01937
0.00000	-0.01647
0.00000	-0.01905
0.00000	-0.01921
0.00000	-0.01373
0.00000	-0.01776
0.00000	-0.01970
0.00000	-0.01825
0.00000	-0.01937
0.00000	-0.01776
0.00000	-0.01905
0.00000	-0.01953
0.00000	-0.01744
0.00000	-0.01825
0.00000	-0.02340
0.00000	-0.02147
0.00000	-0.01615
0.00000	-0.01970
0.01035	-0.02227
0.01035	-0.01825
0.01035	-0.01921
0.01035	-0.01631
0.01035	-0.01921
0.01035	-0.02195
0.01035	-0.02002
0.01035	-0.01937
0.01035	-0.02034
0.02070	-0.01776
0.02070	-0.02115
0.02070	-0.01873
0.02070	-0.01728
0.02070	-0.02082
0.02070	-0.01921
0.03104	-0.01454
0.03104	-0.01663
0.03104	-0.01986
0.03104	-0.01422
0.03104	-0.01599
0.03104	-0.02131
0.03104	-0.01825
0.03104	-0.01631
0.03104	-0.01712
0.03104	-0.01615
0.03104	-0.01744
0.03104	-0.01373
0.03104	-0.01760
0.03104	-0.01825
0.03104	-0.01808
0.03104	-0.01680
0.03104	-0.01873
0.03104	-0.01808
0.03104	-0.01905
0.03104	-0.01760
0.03104	-0.02276
0.03104	-0.02372
0.03104	-0.01760
0.03104	-0.01744
0.03104	-0.02066
0.03104	-0.01808
0.03104	-0.01583
0.03104	-0.01776
0.03104	-0.01696
0.03104	-0.01921
0.03104	-0.01518
0.03104	-0.01647
0.03104	-0.01937
0.03104	-0.01712
0.03104	-0.02050
0.03104	-0.01583
0.03104	-0.02388
0.03104	-0.01631
0.03104	-0.01535
0.03104	-0.01680
0.03104	-0.01486
0.03104	-0.01583
0.03104	-0.01808
0.03104	-0.01663
0.03104	-0.01615
0.03104	-0.01728
0.03104	-0.01551
0.03104	-0.01889
0.03104	-0.02098
0.03104	-0.01422
0.03104	-0.01889
0.03104	-0.01502
0.03104	-0.01615
0.03104	-0.01631
0.03104	-0.01744
0.03104	-0.01728
0.03104	-0.01873
0.03104	-0.01776
0.03104	-0.01663
0.03104	-0.01696
0.03104	-0.01760
0.03104	-0.01808
0.03104	-0.01663
0.03104	-0.01776
0.03104	-0.01470
0.03104	-0.01583
0.03104	-0.01808
0.03104	-0.01696
0.03104	-0.01744
0.03104	-0.01535
0.05174	-0.01696
0.11383	-0.01712
0.13453	-0.02050
0.18627	-0.02098
0.23801	-0.01599
0.27940	-0.01825
0.32079	-0.02018
0.36219	-0.01647
0.39323	-0.01502
0.42428	-0.01744
0.45532	-0.01647
0.49671	-0.01841
0.53811	-0.01776
0.60020	-0.01760
0.63124	-0.02050
0.66228	-0.01583
0.69333	-0.01583
0.72437	-0.01905
0.75542	-0.01986
0.78646	-0.01857
0.82786	-0.01422
0.86925	-0.01502
0.92099	-0.01744
0.97273	-0.01567
1.03482	-0.01841
1.05552	-0.01696
1.06586	-0.01760
1.08656	-0.01728
1.09691	-0.01744
1.11761	-0.01663
1.11761	-0.02018
1.11761	-0.01825
1.11761	-0.01921
1.11761	-0.02002
1.12795	-0.01406
1.12795	-0.01647
1.13830	-0.01825
1.14865	-0.01953
1.19004	-0.01631
1.24178	-0.01873
1.29352	-0.02115
1.34527	-0.02002
1.38666	-0.01019
1.42805	-0.02276
1.50049	-0.01728
1.55223	-0.01776
1.59362	-0.02147
1.62467	-0.01551
1.66606	-0.01744
1.71780	-0.01792
1.76954	-0.01808
1.82128	-0.01567
1.87302	-0.02211
1.93511	-0.01760
1.97651	-0.01792
2.01790	-0.01953
2.05929	-0.01406
2.11103	-0.02147
2.16277	-0.01583
2.22486	-0.01841
2.28695	-0.01921
2.34904	-0.01583
2.42148	-0.01551
2.49392	-0.01792
2.56635	-0.01696
2.63879	-0.01712
2.70088	-0.01438
2.77332	-0.01357
2.85610	-0.01599
2.92854	-0.01470
3.00098	-0.01744
3.06307	-0.01986
3.11481	-0.01921
3.16655	-0.01647
3.22864	-0.01857
3.29073	-0.02404
3.33212	-0.01857
3.38386	-0.01567
3.43560	-0.01760
3.48734	-0.01905
3.55978	-0.01599
3.62187	-0.02018
3.67361	-0.01712
3.73570	-0.01841
3.79779	-0.01744
3.87023	-0.01567
3.94266	-0.01631
4.01510	-0.01760
4.08754	-0.01712
4.15997	-0.01502
4.22206	-0.01647
4.28415	-0.02050
4.34624	-0.01905
4.39798	-0.01696
4.46007	-0.01776
4.51181	-0.01825
4.55321	-0.01567
4.60495	-0.01841
4.66704	-0.01921
4.71878	-0.01486
4.78087	-0.01680
4.83261	-0.01357
4.89470	-0.01889
4.95679	-0.01905
5.02922	-0.01921
5.09131	-0.01760
5.16375	-0.01970
5.22584	-0.01535
5.27758	-0.01825
5.33967	-0.01776
5.39141	-0.01808
5.46385	-0.01744
5.51559	-0.01454
5.56733	-0.01744
5.61907	-0.01680
5.66046	-0.01599
5.71220	-0.01986
5.78464	-0.01712
5.86743	-0.01535
5.93986	-0.01792
6.01230	-0.01647
6.07439	-0.01438
6.13648	-0.01792
6.19857	-0.01406
6.26066	-0.01647
6.32275	-0.01502
6.38484	-0.01663
6.44693	-0.01357
6.48832	-0.01406
6.54006	-0.01438
6.59180	-0.01792
6.63319	-0.01631
6.66424	-0.01841
6.70563	-0.01937
6.73668	-0.01293
6.76772	-0.01422
6.80911	-0.01744
6.86085	-0.01277
6.90225	-0.01825
6.94364	-0.01841
6.98503	-0.01373
7.03677	-0.01857
7.08851	-0.01760
7.14026	-0.01647
7.21269	-0.01583
7.28513	-0.01535
7.34722	-0.01196
7.40931	-0.01680
7.46105	-0.01438
7.51279	-0.01696
7.56453	-0.01905
7.60592	-0.01857
7.65767	-0.01599
7.69906	-0.01857
7.75080	-0.01615
7.80254	-0.01518
7.85428	-0.01631
7.89567	-0.02082
7.94741	-0.01373
7.98881	-0.02034
8.03020	-0.01921
8.08194	-0.01454
8.12333	-0.01357
8.18542	-0.01390
8.23716	-0.01583
8.29925	-0.01535
8.36134	-0.01583
8.42343	-0.01615
8.48552	-0.01921
8.54761	-0.01744
8.58900	-0.01663
8.64074	-0.01631
8.68214	-0.01631
8.74423	-0.01760
8.77527	-0.00955
8.82701	-0.01470
8.90980	-0.01277
8.97189	-0.01663
9.03398	-0.01712
9.07537	-0.01712
9.13746	-0.01631
9.17885	-0.01132
9.22024	-0.01631
9.25129	-0.01518
9.28233	-0.01567
9.30303	-0.01309
9.31338	-0.01712
9.32372	-0.01454
9.33407	-0.01293
9.35477	-0.01083
9.36512	-0.01196
9.38581	-0.01357
9.41686	-0.01051
9.46860	-0.01067
9.54104	-0.01873
9.61347	-0.01454
9.69626	-0.01390
9.76870	-0.01261
9.83079	-0.00938
9.87218	-0.01212
9.91357	-0.01647
9.93427	-0.01567
9.95496	-0.01486
9.98601	-0.01567
10.01705	-0.01309
10.04810	-0.01518
10.07914	-0.01180
10.09984	-0.01502
10.13088	-0.01051
10.16193	-0.01567
10.21367	-0.01647
10.27576	-0.02034
10.34820	-0.01293
10.42063	-0.01551
10.48272	-0.01212
10.54481	-0.01760
10.59655	-0.01825
10.62760	-0.01744
10.65864	-0.01373
10.67934	-0.01518
10.72073	-0.01486
10.77247	-0.01567
10.82421	-0.01406
10.86561	-0.01486
10.89665	-0.01180
10.92770	-0.01148
10.94839	-0.01083
10.98978	-0.01341
11.04153	-0.01309
11.11396	-0.01309
11.18640	-0.00955
11.24849	-0.01277
11.33127	-0.01277
11.40371	-0.01132
11.45545	-0.00955
11.52789	-0.01051
11.61068	-0.01245
11.68311	-0.01228
11.76590	-0.01067
11.83834	-0.01019
11.90043	-0.01083
11.96251	-0.00971
12.02460	-0.01647
12.08669	-0.01261
12.14878	-0.00584
12.22122	-0.00649
12.30401	-0.01196
12.37644	-0.00455
12.44888	-0.00246
12.54201	-0.00149
12.64550	-0.00117
12.73863	0.00366
12.79037	0.00076
12.89385	0.00592
12.95594	0.00479
13.06977	0.01285
13.13186	0.01269
13.23534	0.02316
13.31813	0.02590
13.43196	0.03218
13.54579	0.03991
13.63892	0.04571
13.74240	0.05489
13.84589	0.06440
13.93902	0.06971
14.00111	0.07890
14.05285	0.09114
14.10459	0.09356
14.14598	0.09726
14.19773	0.10274
14.27016	0.11305
14.33225	0.11434
14.40469	0.12126
14.46678	0.11708
14.55991	0.12787
14.62200	0.12916
14.70479	0.13431
14.78757	0.13174
14.87036	0.12980
14.94280	0.12513
15.00488	0.13141
15.06697	0.12964
15.12906	0.12916
15.19115	0.12368
15.24289	0.12352
15.30498	0.12094
15.34637	0.11498
15.38777	0.11224
15.43951	0.10789
15.49125	0.10886
15.55334	0.10048
15.62578	0.09678
15.66717	0.09227
15.70856	0.08727
15.74995	0.08534
15.78100	0.07890
15.83274	0.07535
15.89483	0.07036
15.96727	0.06408
16.03970	0.06569
16.11214	0.05747
16.16388	0.05441
16.22597	0.05280
16.26736	0.04732
16.30876	0.04362
16.35015	0.03894
16.38119	0.03637
16.41224	0.03266
16.45363	0.02799
16.50537	0.02735
16.57781	0.02171
16.65025	0.02074
16.71234	0.02058
16.76408	0.01333
16.82617	0.00930
16.89860	0.00962
16.96069	0.00689
17.02278	0.00302
17.07452	0.00399
17.12626	0.00238
17.18835	0.00076
17.26079	-0.00262
17.32288	-0.00052
17.38497	-0.00649
17.45741	-0.00520
17.51950	-0.00568
17.58159	-0.00665
17.64367	-0.00971
17.70576	-0.01261
17.75750	-0.01261
17.82994	-0.01003
17.87133	-0.01583
17.92308	-0.01454
17.97482	-0.01132
18.01621	-0.01309
18.06795	-0.00777
18.11969	-0.01261
18.17143	-0.01760
18.21283	-0.01212
18.26457	-0.01792
18.31631	-0.01889
18.37840	-0.01567
18.44049	-0.01535
18.50257	-0.01470
18.55432	-0.01051
18.59571	-0.01293
18.63710	-0.01583
18.68884	-0.01277
18.74058	-0.01454
18.78198	-0.01728
18.82337	-0.01873
18.87511	-0.01228
18.92685	-0.01261
18.96824	-0.01502
19.01998	-0.01712
19.06138	-0.01293
19.12347	-0.01937
19.17521	-0.01599
19.23730	-0.01535
19.28904	-0.01970
19.35113	-0.01454
19.39252	-0.01325
19.43391	-0.01615
19.47531	-0.01551
19.51670	-0.01390
19.55809	-0.01422
19.60983	-0.01567
19.65122	-0.01696
19.70297	-0.01631
19.75471	-0.01551
19.80645	-0.01551
19.85819	-0.01857
19.88923	-0.01970
19.93063	-0.01228
19.97202	-0.01518
20.02376	-0.01228
20.06515	-0.01454
20.10655	-0.01277
20.15829	-0.01422
20.19968	-0.01390
20.26177	-0.01357
20.31351	-0.01470
20.37560	-0.01728
20.41699	-0.01035
20.47908	-0.01438
20.53082	-0.00971
20.59291	-0.01180
20.64465	-0.01067
20.69639	-0.01696
20.73778	-0.01245
20.78953	-0.01406
20.83092	-0.01422
20.87231	-0.01067
20.93440	-0.01438
20.97579	-0.01663
21.02753	-0.01341
21.07928	-0.01067
21.12067	-0.01357
21.15171	-0.01325
21.19311	-0.01196
21.22415	-0.01406
21.26554	-0.01164
21.30694	-0.01132
21.35868	-0.01470
21.41042	-0.01615
21.46216	-0.01261
21.50355	-0.01792
21.54494	-0.01470
21.59669	-0.01019
21.64843	-0.01228
21.70017	-0.01406
21.75191	-0.01680
21.80365	-0.01406
21.85539	-0.01309
21.89678	-0.01502
21.94852	-0.01083
22.00026	-0.01438
22.04166	-0.01116
22.08305	-0.01551
22.13479	-0.01406
22.16584	-0.01390
22.20723	-0.01470
22.24862	-0.01390
22.29001	-0.01341
22.33141	-0.01406
22.36245	-0.01196
22.40384	-0.01373
22.43489	-0.01583
22.46593	-0.01196
22.48663	-0.00890
22.51767	-0.01373
22.54872	-0.01116
22.57976	-0.01245
22.60046	-0.01309
22.63150	-0.01454
22.67290	-0.01212
22.70394	-0.01341
22.74534	-0.01615
22.77638	-0.01212
22.81777	-0.00777
22.84882	-0.00922
22.89021	-0.00729
22.92125	-0.00971
22.94195	-0.01293
22.97300	-0.01228
23.00404	-0.01325
23.03508	-0.01245
23.05578	-0.01422
23.08683	-0.01212
23.12822	-0.01019
23.15926	-0.01277
23.20066	-0.01696
23.24205	-0.01148
23.27309	-0.01212
23.30414	-0.01293
23.34553	-0.01132
23.38692	-0.01100
23.42832	-0.01535
23.45936	-0.01180
23.49041	-0.01019
23.52145	-0.01261
23.56284	-0.01019
23.59389	-0.01486
23.63528	-0.01535
23.66632	-0.01390
23.70772	-0.01116
23.73876	-0.00987
23.76981	-0.01228
23.80085	-0.01100
23.83190	-0.01116
23.85259	-0.01067
23.88364	-0.01245
23.90433	-0.01390
23.93538	-0.01373
23.96642	-0.01164
23.99747	-0.00632
24.02851	-0.00697
24.04921	-0.01212
24.08025	-0.01228
24.10095	-0.01003
24.13199	-0.01293
24.15269	-0.01035
24.18373	-0.01502
24.21478	-0.01309
24.24582	-0.01180
24.27687	-0.01486
24.30791	-0.01889
24.33896	-0.01261
24.38035	-0.01261
24.41139	-0.00858
24.44244	-0.01100
24.48383	-0.01245
24.51488	-0.01454
24.55627	-0.01438
24.58731	-0.01341
24.62871	-0.01857
24.65975	-0.01631
24.70114	-0.01454
24.73219	-0.01841
24.77358	-0.01518
24.81497	-0.00938
24.85637	-0.01583
24.89776	-0.01680
24.92880	-0.01277
24.97020	-0.00906
25.00124	-0.01567
25.04263	-0.01728
25.08403	-0.01373
25.13577	-0.01309
25.17716	-0.01518
25.22890	-0.01132
25.28064	-0.01599
25.32204	-0.01792
25.36343	-0.01776
25.39447	-0.01470
25.43587	-0.01744
25.46691	-0.01470
25.50830	-0.01422
25.54970	-0.01454
25.58074	-0.01083
25.63248	-0.01196
25.66353	-0.01116
25.71527	-0.01470
25.74631	-0.01196
25.78770	-0.01518
25.81875	-0.01599
25.84979	-0.01438
25.89119	-0.01825
25.92223	-0.01583
25.95328	-0.01518
25.98432	-0.01373
26.02571	-0.00890
26.05676	-0.01212
26.09815	-0.01631
26.13954	-0.01132
26.17059	-0.01390
26.21198	-0.01551
26.24303	-0.01905
26.27407	-0.01438
26.31546	-0.01663
26.34651	-0.01792
26.38790	-0.01438
26.42929	-0.01760
26.46034	-0.01663
26.50173	-0.01631
26.53277	-0.01422
26.57417	-0.01953
26.60521	-0.01164
26.64660	-0.01164
26.69835	-0.01551
26.72939	-0.01277
26.78113	-0.01518
26.83287	-0.01551
26.89496	-0.01663
26.94670	-0.01567
27.00879	-0.01647
27.07088	-0.01567
27.12262	-0.01406
27.17436	-0.01808
27.22610	-0.01438
27.26750	-0.01808
27.31924	-0.01631
27.35028	-0.01422
27.38133	-0.01631
27.42272	-0.01535
27.46411	-0.01341
27.51585	-0.00842
27.56759	-0.01277
27.61934	-0.01164
27.67108	-0.01357
27.72282	-0.01341
27.77456	-0.01277
27.83665	-0.01712
27.88839	-0.01277
27.95048	-0.01518
28.00222	-0.01454
28.07466	-0.01535
28.13675	-0.01261
28.19883	-0.00922
28.26092	-0.01454
28.31266	-0.01744
28.37475	-0.01615
28.41615	-0.01003
28.46789	-0.01035
28.51963	-0.01051
28.57137	-0.01712
28.62311	-0.01325
28.66450	-0.01325
28.69555	-0.01373
28.72659	-0.01615
28.76799	-0.01615
28.81973	-0.01567
28.85077	-0.01454
28.89216	-0.01067
28.93356	-0.01744
28.97495	-0.01261
29.01634	-0.01132
29.05773	-0.01406
29.08878	-0.01212
29.13017	-0.01164
29.16122	-0.01438
29.20261	-0.01535
29.24400	-0.01615
29.29574	-0.01712
29.34748	-0.01083
29.39923	-0.01261
29.45097	-0.01309
29.50271	-0.01051
29.56480	-0.01808
29.62689	-0.01228
29.67863	-0.01438
29.73037	-0.01583
29.78211	-0.01680
29.82350	-0.01631
29.87524	-0.01583
29.92698	-0.01760
29.96838	-0.01921
30.03047	-0.01599
30.08221	-0.01583
30.13395	-0.01293
30.17534	-0.01792
30.23743	-0.01390
30.29952	-0.01261
30.35126	-0.01357
30.40300	-0.01438
30.46509	-0.01744
30.52718	-0.01341
30.58927	-0.01647
30.65136	-0.01518
30.70310	-0.01357
30.75484	-0.00745
30.80658	-0.01293
30.84797	-0.01196
30.89971	-0.01390
30.95145	-0.01228
30.99285	-0.01196
31.04459	-0.01422
31.08598	-0.01100
31.13772	-0.01100
31.18946	-0.01003
31.23086	-0.01486
31.29295	-0.01760
31.35503	-0.01003
31.40678	-0.01325
31.45852	-0.01631
31.52061	-0.01680
31.58269	-0.01422
31.63444	-0.01728
31.67583	-0.01535
31.71722	-0.01567
31.75861	-0.01680
31.80001	-0.01406
31.85175	-0.01905
31.89314	-0.01390
31.94488	-0.01615
31.98627	-0.01728
32.02767	-0.01325
32.07941	-0.01502
32.13115	-0.01406
32.18289	-0.01760
32.22428	-0.01728
32.26568	-0.01760
32.30707	-0.01406
32.35881	-0.01325
32.40020	-0.01470
32.45194	-0.01341
32.50368	-0.01486
32.54508	-0.01841
32.58647	-0.01422
32.61751	-0.01502
32.65891	-0.01599
32.68995	-0.01454
32.73134	-0.01841
32.77274	-0.01406
32.82448	-0.01438
32.87622	-0.01438
32.93831	-0.01486
32.97970	-0.01873
33.02109	-0.01035
33.06249	-0.01422
33.10388	-0.01631
33.14527	-0.01744
33.17632	-0.01228
33.21771	-0.01341
33.24875	-0.01663
33.27980	-0.01438
33.30050	-0.01470
33.32119	-0.01277
33.33154	-0.01470
33.34189	-0.01019
33.35224	-0.01599
33.36258	-0.01535
33.37293	-0.01647
33.39363	-0.01518
33.41433	-0.01696
33.45572	-0.01083
33.50746	-0.01760
33.56955	-0.01309
33.62129	-0.01825
33.67303	-0.01357
33.69373	-0.01615
33.71442	-0.01567
33.73512	-0.01261
33.76616	-0.01309
33.79721	-0.01744
33.82825	-0.01293
33.86965	-0.01551
33.91104	-0.01325
33.95243	-0.01663
34.00417	-0.01502
34.04557	-0.01390
34.08696	-0.01647
34.13870	-0.01567
34.19044	-0.01696
34.26288	-0.01309
34.32497	-0.01551
34.37671	-0.01535
34.43880	-0.01502
34.49054	-0.01341
34.54228	-0.01518
34.57332	-0.01261
34.61472	-0.01728
34.66646	-0.01502
34.70785	-0.01760
34.76994	-0.01325
34.82168	-0.01406
34.87342	-0.01744
34.93551	-0.01583
34.97690	-0.01406
35.01830	-0.01454
35.04934	-0.01583
35.10108	-0.01486
35.15282	-0.01535
35.21491	-0.01760
35.27700	-0.01663
35.33909	-0.01438
35.40118	-0.01728
35.46327	-0.01744
35.53571	-0.02018
35.60814	-0.01599
35.67023	-0.01647
35.73232	-0.01390
35.79441	-0.01422
35.85650	-0.01792
35.90824	-0.01373
35.95998	-0.01889
36.00137	-0.01470
36.03242	-0.01921
36.07381	-0.01825
36.11520	-0.01986
36.15660	-0.01599
36.20834	-0.01760
36.24973	-0.01873
36.29112	-0.01518
36.32217	-0.01486
36.36356	-0.01712
36.39461	-0.01663
36.43600	-0.01502
36.48774	-0.01647
36.53948	-0.02115
36.60157	-0.01728
36.65331	-0.02147
36.70505	-0.01180
36.75679	-0.02034
36.79819	-0.01647
36.84993	-0.01663
36.90167	-0.01599
36.95341	-0.01776
37.00515	-0.01663
37.04654	-0.01873
37.08793	-0.01808
37.11898	-0.01518
37.16037	-0.01986
37.20176	-0.02066
37.23281	-0.01680
37.27420	-0.01857
37.31560	-0.01712
37.36734	-0.01438
37.40873	-0.01567
37.46047	-0.02050
37.52256	-0.01680
37.57430	-0.01970
37.62604	-0.01680
37.67778	-0.02002
37.72952	-0.01696
37.79161	-0.01841
37.86405	-0.01970
37.92614	-0.02098
37.98823	-0.01825
38.05032	-0.01277
38.12275	-0.02163
38.18484	-0.01986
38.24693	-0.01744
38.29867	-0.02098
38.35041	-0.01825
38.41250	-0.01905
38.46424	-0.02050
38.51599	-0.01825
38.57808	-0.01744
38.61947	-0.02050
38.67121	-0.01454
38.71260	-0.01825
38.75399	-0.01663
38.80574	-0.02098
38.84713	-0.01792
38.89887	-0.01680
38.95061	-0.01776
39.00235	-0.01857
39.05409	-0.01647
39.10583	-0.01728
39.15757	-0.02179
39.20932	-0.01873
39.26106	-0.01760
39.30245	-0.01712
39.34384	-0.01583
39.38523	-0.01696
39.43698	-0.01953
39.47837	-0.01422
39.53011	-0.01808
39.58185	-0.01663
39.63359	-0.02179
39.69568	-0.02614
39.73707	-0.02292
39.80951	-0.01857
39.87160	-0.01953
39.92334	-0.02034
39.98543	-0.01776
40.03717	-0.02131
40.08891	-0.01986
40.13030	-0.02533
40.17170	-0.02131
40.22344	-0.02066
40.26483	-0.02324
40.32692	-0.01857
40.36831	-0.02292
40.43040	-0.02179
40.48214	-0.01841
40.53388	-0.02050
40.59597	-0.02566
40.65806	-0.02582
40.72015	-0.02211
40.77189	-0.01889
40.83398	-0.01680
40.88572	-0.02066
40.92712	-0.02356
40.95816	-0.02066
40.99955	-0.02115
41.04095	-0.02292
41.09269	-0.01937
41.13408	-0.02340
41.17547	-0.02276
41.21687	-0.01986
41.25826	-0.02694
41.31000	-0.02147
41.36174	-0.02147
41.41348	-0.02759
41.45487	-0.02259
41.50661	-0.02098
41.55836	-0.02292
41.62044	-0.01921
41.67219	-0.02098
41.72393	-0.02243
41.77567	-0.02227
41.82741	-0.02179
41.86880	-0.01905
41.89985	-0.02002
41.94124	-0.02276
41.98263	-0.02324
42.02402	-0.02243
42.07577	-0.01857
42.11716	-0.02163
42.15855	-0.02308
42.18960	-0.02131
42.21029	-0.02388
42.24134	-0.02437
42.27238	-0.02372
42.32412	-0.02308
42.37586	-0.02404
42.42760	-0.02356
42.48969	-0.02533
42.54143	-0.02082
42.59318	-0.02276
42.66561	-0.02050
42.73805	-0.02195
42.81049	-0.01857
42.87258	-0.02131
42.93467	-0.02388
42.98641	-0.01970
43.05884	-0.02324
43.12093	-0.01921
43.17267	-0.01953
43.23476	-0.02163
43.29685	-0.01937
43.34859	-0.02727
43.40033	-0.02131
43.47277	-0.01970
43.54521	-0.02227
43.60730	-0.02227
43.67974	-0.02098
43.74182	-0.02147
43.81426	-0.02163
43.88670	-0.02082
43.95914	-0.02308
44.03157	-0.02147
44.11436	-0.02098
44.18680	-0.02453
44.23854	-0.02002
44.30063	-0.02404
44.35237	-0.02098
44.42481	-0.02598
44.48690	-0.02066
44.53864	-0.02324
44.59038	-0.02598
44.63177	-0.02179
44.66281	-0.02646
44.69386	-0.02372
44.72490	-0.02018
44.76630	-0.02421
44.80769	-0.02501
44.84908	-0.02501
44.88013	-0.02082
44.91117	-0.02163
44.94222	-0.02356
44.97326	-0.02098
45.00430	-0.02421
45.03535	-0.02195
45.07674	-0.02098
45.12848	-0.02243
45.18022	-0.01986
45.24231	-0.02485
45.29405	-0.02115
45.34580	-0.02582
45.38719	-0.02324
45.42858	-0.02453
45.46997	-0.02437
45.51137	-0.02485
45.55276	-0.02404
45.59415	-0.02437
45.63554	-0.02131
45.67694	-0.02340
45.72868	-0.02598
45.78042	-0.02469
45.83216	-0.02678
45.88390	-0.02533
45.92529	-0.02662
45.96669	-0.02227
46.00808	-0.02856
46.04947	-0.02533
46.09087	-0.02823
46.15295	-0.02582
46.22539	-0.02292
46.28748	-0.02421
46.37027	-0.02388
46.43236	-0.02453
46.49445	-0.02147
46.56688	-0.02533
46.64967	-0.02292
46.72211	-0.02549
46.79454	-0.02372
46.85663	-0.02340
46.93942	-0.02823
47.00151	-0.01905
47.07394	-0.02388
47.13603	-0.02276
47.19812	-0.02211
47.26021	-0.02501
47.32230	-0.02678
47.38439	-0.02662
47.46718	-0.02179
47.54996	-0.02549
47.61205	-0.02372
47.68449	-0.02678
47.75693	-0.02533
47.81901	-0.02163
47.88110	-0.02098
47.94319	-0.02775
48.00528	-0.02211
48.07772	-0.02243
48.15016	-0.02453
48.22259	-0.02453
48.28468	-0.02582
48.32608	-0.02388
48.36747	-0.02404
48.41921	-0.02582
48.48130	-0.02372
48.54339	-0.02147
48.59513	-0.02259
48.64687	-0.01792
48.70896	-0.02888
48.76070	-0.02179
48.80209	-0.02356
48.85383	-0.02211
48.90557	-0.01970
48.95732	-0.02356
49.00906	-0.02147
49.07115	-0.02308
49.12289	-0.02485
49.17463	-0.02034
49.22637	-0.02259
49.28846	-0.02034
49.36090	-0.02453
49.43333	-0.02131
49.50577	-0.02179
49.59890	-0.02211
49.67134	-0.01889
49.74378	-0.02872
49.82656	-0.01970
49.90935	-0.02018
49.99214	-0.02340
50.07492	-0.02050
50.14736	-0.02533
50.21980	-0.01953
50.28188	-0.02727
50.34397	-0.02372
50.39572	-0.02292
50.43711	-0.02259
50.47850	-0.02034
50.53024	-0.02163
50.57163	-0.02098
50.62338	-0.02308
50.67512	-0.02372
50.73721	-0.02598
50.77860	-0.02533
50.83034	-0.02727
50.87173	-0.02517
50.92347	-0.02872
50.98556	-0.02566
51.03730	-0.02533
51.08904	-0.02372
51.13044	-0.02276
51.17183	-0.02968
51.21322	-0.02308
51.26496	-0.02437
51.32705	-0.02340
51.37879	-0.02163
51.43053	-0.02276
51.48228	-0.02276
51.52367	-0.02453
51.56506	-0.02453
51.60645	-0.02404
51.64785	-0.02775
51.69959	-0.02533
51.75133	-0.02533
51.79272	-0.02404
51.82377	-0.02437
51.86516	-0.02598
51.91690	-0.02533
51.95829	-0.02517
51.99969	-0.02211
52.04108	-0.02566
52.09282	-0.02388
52.14456	-0.02727
52.18595	-0.02308
52.23769	-0.02582
52.26874	-0.02614
52.31013	-0.02259
52.35152	-0.02243
52.38257	-0.02195
52.42396	-0.02147
52.45501	-0.02566
52.49640	-0.02002
52.51710	-0.02517
52.53779	-0.02324
52.55849	-0.02098
52.57918	-0.02743
52.58953	-0.02614
52.59988	-0.02131
52.61023	-0.02404
52.62058	-0.02421
52.63093	-0.02404
52.66197	-0.02582
52.71371	-0.02034
52.80684	-0.02356
52.89998	-0.02243
52.98276	-0.02404
53.07590	-0.02372
53.15868	-0.02743
53.24147	-0.02259
53.32425	-0.02711
53.38634	-0.02308
53.45878	-0.02227
53.51052	-0.02356
53.57261	-0.02437
53.62435	-0.02888
53.65540	-0.02437
53.69679	-0.02163
53.72783	-0.02372
53.75888	-0.02614
53.80027	-0.02727
53.84166	-0.02678
53.88306	-0.02437
53.92445	-0.02791
53.96584	-0.02388
54.00724	-0.02759
54.05898	-0.02662
54.11072	-0.02823
54.17281	-0.02034
54.23490	-0.02404
54.29698	-0.02872
54.34873	-0.02227
54.41082	-0.02501
54.48325	-0.02243
54.53499	-0.02630
54.58673	-0.02324
54.63848	-0.02566
54.67987	-0.02823
54.71091	-0.02453
54.76265	-0.02888
54.80405	-0.02404
54.85579	-0.02195
54.89718	-0.02646
54.92822	-0.02308
54.96962	-0.02292
55.01101	-0.02566
55.05240	-0.02566
55.09380	-0.02421
55.12484	-0.02727
55.16623	-0.02839
55.18693	-0.02743
55.21797	-0.02549
55.23867	-0.02147
55.25937	-0.02614
55.29041	-0.02404
55.31111	-0.02437
55.34215	-0.02501
55.37320	-0.02533
55.40424	-0.02582
55.43529	-0.02646
55.47668	-0.02388
55.51807	-0.02566
55.56981	-0.02630
55.61121	-0.02920
55.65260	-0.02517
55.69399	-0.02243
55.73538	-0.02372
55.78713	-0.02388
55.83887	-0.02630
55.90096	-0.02292
55.95270	-0.02533
56.01479	-0.02920
56.06653	-0.02936
56.10792	-0.02743
56.14931	-0.02646
56.19070	-0.02598
56.23210	-0.02582
56.27349	-0.02791
56.31488	-0.02227
56.35628	-0.02630
56.39767	-0.02501
56.42871	-0.02662
56.47011	-0.02485
56.51150	-0.02533
56.55289	-0.02131
56.59428	-0.02662
56.64603	-0.02694
56.69777	-0.02759
56.74951	-0.02888
56.80125	-0.02662
56.84264	-0.02807
56.88403	-0.02694
56.91508	-0.02743
56.94612	-0.02517
56.98752	-0.02646
57.02891	-0.02984
57.09100	-0.02614
57.13239	-0.02421
57.18413	-0.02791
57.22552	-0.02678
57.27727	-0.02566
57.31866	-0.02904
57.36005	-0.02888
57.40144	-0.02678
57.44284	-0.02856
57.47388	-0.02372
57.50493	-0.02517
57.54632	-0.02662
57.57736	-0.02598
57.61876	-0.02324
57.66015	-0.02711
57.70154	-0.02727
57.75328	-0.02582
57.79468	-0.02276
57.83607	-0.02711
57.87746	-0.02839
57.90851	-0.02549
57.93955	-0.02759
57.98094	-0.02582
58.01199	-0.02839
58.05338	-0.02775
58.10512	-0.02791
58.14651	-0.02598
58.18791	-0.02566
58.21895	-0.02340
58.25000	-0.02711
58.28104	-0.02437
58.30174	-0.02646
58.33278	-0.02743
58.36383	-0.03001
58.38452	-0.02614
58.40522	-0.02630
58.42592	-0.02356
58.45696	-0.02791
58.47766	-0.02372
58.50870	-0.02936
58.56044	-0.02614
58.61218	-0.02791
58.66392	-0.02437
58.71566	-0.02549
58.75706	-0.02678
58.79845	-0.02340
58.83984	-0.02904
58.88124	-0.02614
58.91228	-0.03033
58.95367	-0.02662
59.00541	-0.02421
59.04681	-0.02807
59.09855	-0.02421
59.13994	-0.02727
59.17099	-0.02598
59.20203	-0.02533
59.23307	-0.02517
59.25377	-0.02678
59.28482	-0.02453
59.30551	-0.02743
59.32621	-0.02904
59.35725	-0.02549
59.38830	-0.02807
59.42969	-0.02727
59.46073	-0.02517
59.49178	-0.03500
59.52282	-0.02791
59.55387	-0.02678
59.57456	-0.02549
59.61596	-0.02630
59.64700	-0.02678
59.69874	-0.02549
59.74014	-0.03146
59.79188	-0.02872
59.83327	-0.02872
59.87466	-0.02727
59.91606	-0.02614
59.97814	-0.02582
60.01954	-0.02872
60.06093	-0.02566
60.10232	-0.02614
60.13337	-0.02453
60.15406	-0.02485
60.18511	-0.02292
60.20580	-0.02775
60.23685	-0.02469
60.26789	-0.02582
60.29894	-0.03065
60.34033	-0.02630
60.38172	-0.02566
60.42312	-0.02372
60.45416	-0.02356
60.49555	-0.03129
60.52660	-0.02421
60.55764	-0.02404
60.59904	-0.02662
60.63008	-0.02759
60.65078	-0.02759
60.68182	-0.02839
60.70252	-0.02517
60.73356	-0.02711
60.76461	-0.02856
60.80600	-0.02582
60.84739	-0.02421
60.88879	-0.02872
60.91983	-0.02678
60.95088	-0.02872
60.98192	-0.02872
61.01296	-0.02598
61.04401	-0.02195
61.07505	-0.02453
61.11645	-0.02050
61.14749	-0.02743
61.17854	-0.02791
61.20958	-0.02243
61.24062	-0.02598
61.27167	-0.02614
61.30271	-0.02904
61.34411	-0.02694
61.37515	-0.02388
61.41654	-0.03001
61.43724	-0.03017
61.46828	-0.03097
61.50968	-0.02888
61.54072	-0.02421
61.58212	-0.02598
61.62351	-0.02549
61.65455	-0.02775
61.68560	-0.02276
61.72699	-0.02517
61.75803	-0.03274
61.79943	-0.02453
61.84082	-0.02533
61.87186	-0.02727
61.91326	-0.02662
61.94430	-0.02711
61.97535	-0.02598
62.01674	-0.02904
62.04778	-0.02823
62.07883	-0.02453
62.12022	-0.02678
62.16161	-0.03033
62.20301	-0.02404
62.23405	-0.02485
62.28579	-0.02501
62.32719	-0.02340
62.35823	-0.02598
62.38927	-0.02050
62.44102	-0.02179
62.48241	-0.02711
62.51345	-0.02340
62.55485	-0.02372
62.59624	-0.02952
62.64798	-0.02098
62.67902	-0.02517
62.69972	-0.02469
62.73076	-0.02195
62.74111	-0.02823
62.76181	-0.02759
62.78251	-0.02662
62.79285	-0.02485
62.81355	-0.02211
62.84459	-0.02195
62.88599	-0.02195
62.92738	-0.02501
62.96877	-0.02292
63.01017	-0.02614
63.05156	-0.01986
63.08260	-0.02614
63.11365	-0.02098
63.13434	-0.02630
63.16539	-0.02098
63.18609	-0.02292
63.21713	-0.02082
63.23783	-0.02549
63.27922	-0.02115
63.31026	-0.02872
63.35166	-0.02098
63.39305	-0.02131
63.42409	-0.02582
63.47583	-0.02453
63.50688	-0.02582
63.54827	-0.02872
63.58967	-0.02694
63.63106	-0.02211
63.66210	-0.02630
63.69315	-0.02501
63.72419	-0.02614
63.75524	-0.02018
63.77593	-0.02243
63.80698	-0.02388
63.82767	-0.02549
63.84837	-0.02485
63.86907	-0.02308
63.90011	-0.02115
63.92081	-0.02195
63.94150	-0.02936
63.97255	-0.02437
64.00359	-0.02533
64.05533	-0.02549
64.11742	-0.02259
64.17951	-0.01841
64.25195	-0.01776
64.30369	-0.02211
64.36578	-0.01953
64.40717	-0.02646
64.43822	-0.02098
64.46926	-0.01792
64.50031	-0.02034
64.53135	-0.02211
64.56240	-0.02066
64.61414	-0.02066
64.66588	-0.02259
64.70727	-0.01889
64.76936	-0.02195
64.82110	-0.02340
64.86249	-0.01760
64.89354	-0.01825
64.93493	-0.02066
64.97632	-0.02002
65.01772	-0.02227
65.05911	-0.02050
65.09015	-0.02421
65.12120	-0.02034
65.14189	-0.02082
65.16259	-0.01825
65.18329	-0.01889
65.20398	-0.01583
65.23503	-0.01873
65.26607	-0.02050
65.29712	-0.01970
65.34886	-0.01889
65.37990	-0.02002
65.41095	-0.02292
65.43164	-0.02131
65.45234	-0.02066
65.46269	-0.01792
65.48338	-0.01873
65.49373	-0.01647
65.51443	-0.02340
65.52478	-0.02195
65.54547	-0.01776
65.55582	-0.01454
65.56617	-0.01728
65.58687	-0.01841
65.59722	-0.01647
65.61791	-0.01905
65.62826	-0.02211
65.63861	-0.01792
65.65930	-0.02034
65.66965	-0.01889
65.68000	-0.01857
65.70070	-0.02066
65.73174	-0.02227
65.76279	-0.02050
65.80418	-0.02211
65.85592	-0.01873
65.90766	-0.01535
65.93871	-0.02066
65.98010	-0.01986
66.00079	-0.01470
66.03184	-0.01776
66.04219	-0.02050
66.06288	-0.02066
66.08358	-0.01857
66.09393	-0.01841
66.11462	-0.01647
66.12497	-0.02147
66.14567	-0.01502
66.16637	-0.01551
66.19741	-0.01889
66.22846	-0.02050
66.25950	-0.01808
66.29054	-0.01905
66.31124	-0.01567
66.33194	-0.01728
66.36298	-0.01712
66.39403	-0.01937
66.43542	-0.01599
66.47681	-0.01841
66.51820	-0.01889
66.56995	-0.01841
66.62169	-0.02147
66.66308	-0.01535
66.70447	-0.01728
66.74586	-0.01953
66.77691	-0.01953
66.80795	-0.02437
66.83900	-0.01518
66.87004	-0.02034
66.90109	-0.01486
66.93213	-0.01663
66.97353	-0.02211
67.00457	-0.01808
67.02527	-0.01502
67.04596	-0.01905
67.05631	-0.01712
67.05631	-0.01970
67.06666	-0.01551
67.07701	-0.01841
67.08736	-0.01583
67.09770	-0.01406
67.10805	-0.01696
67.11840	-0.01776
67.12875	-0.01857
67.13910	-0.01615
67.15979	-0.01808
67.17014	-0.01712
67.18049	-0.01696
67.20119	-0.01905
67.22188	-0.02115
67.25293	-0.02002
67.29432	-0.01486
67.34606	-0.01535
67.41850	-0.01696
67.49093	-0.01825
67.56337	-0.01760
67.63581	-0.01357
67.69790	-0.01486
67.72894	-0.01728
67.74964	-0.01728
67.77034	-0.02179
67.78068	-0.01857
67.79103	-0.01535
67.80138	-0.01406
67.81173	-0.01680
67.82208	-0.01712
67.84277	-0.01470
67.86347	-0.01535
67.88417	-0.01583
67.91521	-0.01196
67.95660	-0.01744
67.99800	-0.01663
68.06009	-0.01599
68.10148	-0.01680
68.15322	-0.01486
68.19461	-0.01857
68.23601	-0.01470
68.26705	-0.01744
68.30844	-0.01583
68.33949	-0.01261
68.37053	-0.01212
68.40158	-0.01551
68.43262	-0.01567
68.45332	-0.01808
68.48436	-0.01309
68.50506	-0.01454
68.54645	-0.01341
68.56715	-0.01180
68.59819	-0.01518
68.61889	-0.01132
68.63958	-0.01631
68.66028	-0.01857
68.69133	-0.01454
68.72237	-0.01390
68.75341	-0.01680
68.79481	-0.01905
68.83620	-0.01470
68.87759	-0.01406
68.91899	-0.01390
68.95003	-0.01228
68.99142	-0.01309
69.03282	-0.01100
69.08456	-0.01518
69.12595	-0.01293
69.16734	-0.01196
69.20874	-0.01680
69.26048	-0.01518
69.31222	-0.01148
69.37431	-0.01583
69.44674	-0.01180
69.51918	-0.01744
69.59162	-0.01631
69.66406	-0.01003
69.72615	-0.01373
69.77789	-0.01631
69.82963	-0.01631
69.88137	-0.01776
69.92276	-0.01180
69.97450	-0.01132
70.02624	-0.01164
70.08833	-0.01663
70.14007	-0.01422
70.18147	-0.01583
70.22286	-0.01567
70.26425	-0.01535
70.30564	-0.01325
70.35739	-0.01228
70.40913	-0.01196
70.46087	-0.01615
70.51261	-0.01373
70.57470	-0.01132
70.62644	-0.01132
70.68853	-0.01373
70.74027	-0.00761
70.78166	-0.01100
70.84375	-0.01180
70.89549	-0.01132
70.94723	-0.00922
71.00932	-0.00681
71.06106	-0.01454
71.12315	-0.00906
71.17489	-0.01148
71.22663	-0.00842
71.27837	-0.00681
71.33012	-0.00826
71.39220	-0.00375
71.45429	-0.00600
71.49569	-0.00794
71.52673	-0.00729
71.56812	-0.00922
71.60952	-0.00230
71.66126	-0.00423
71.70265	-0.00761
71.73370	-0.00310
71.77509	-0.00133
71.80613	-0.00165
71.83718	-0.00391
71.86822	-0.00423
71.90961	0.00109
71.95101	-0.00391
71.99240	-0.00052
72.03379	0.00125
72.07519	-0.00101
72.12693	0.00221
72.16832	0.00238
72.22006	0.00334
72.27180	0.00302
72.33389	-0.00004
72.39598	0.00270
72.45807	0.00093
72.50981	-0.00036
72.57190	0.00109
72.61329	0.00350
72.66503	0.00221
72.71677	-0.00101
72.76851	-0.00278
72.82026	-0.00020
72.87200	-0.00085
72.92374	-0.00568
72.97548	-0.00471
73.04792	-0.00584
73.11001	-0.00697
73.16175	-0.00874
73.22384	-0.00471
73.28592	-0.00584
73.34801	-0.00794
73.41010	-0.00794
73.46184	-0.01309
73.51359	-0.01212
73.57567	-0.00906
73.63776	-0.00955
73.71020	-0.01470
73.79299	-0.00713
73.86542	-0.00294
73.92751	-0.01019
73.99995	-0.00955
74.06204	-0.00729
74.12413	-0.01116
74.17587	-0.00794
74.22761	-0.00842
74.27935	-0.00858
74.32074	-0.01116
74.36214	-0.00777
74.41388	-0.00713
74.46562	-0.00777
74.52771	-0.01116
74.57945	-0.00858
74.62084	-0.00681
74.66223	-0.00729
74.71398	-0.00568
74.75537	-0.00681
74.79676	-0.00810
74.82781	-0.00713
74.85885	-0.00649
74.88990	-0.00713
74.92094	-0.00455
74.96233	-0.00842
74.99338	-0.00568
75.03477	-0.00906
75.07616	-0.00922
75.11756	-0.00487
75.16930	-0.00632
75.21069	-0.00697
75.25208	-0.00826
75.29347	-0.01228
75.33487	-0.00713
75.37626	-0.01019
75.40730	-0.00906
75.44870	-0.01132
75.51079	-0.01470
75.56253	-0.00826
75.62462	-0.01148
75.67636	-0.01245
75.71775	-0.00938
75.75914	-0.00745
75.79019	-0.00697
75.83158	-0.00439
75.86263	-0.00777
75.89367	-0.00713
75.92471	-0.00632
75.95576	-0.00729
75.98680	-0.00391
76.02820	-0.01212
76.05924	-0.00423
76.09029	-0.00294
76.13168	-0.00906
76.16272	-0.00536
76.20412	-0.00568
76.23516	-0.00085
76.27655	-0.00294
76.30760	-0.00632
76.34899	-0.00874
76.39038	-0.00826
76.44212	-0.00487
76.49387	-0.00439
76.54561	-0.00342
76.60770	-0.00262
76.64909	-0.00181
76.71118	-0.00955
76.76292	-0.00536
76.81466	-0.00407
76.86640	-0.00922
76.90779	-0.00278
76.93884	-0.01003
76.96988	-0.00230
77.00093	-0.00826
77.03197	-0.00697
77.05267	-0.00407
77.09406	-0.00938
77.13545	-0.00616
77.16650	-0.00665
77.20789	-0.00375
77.24928	-0.00697
77.28033	-0.00890
77.31137	-0.00536
77.33207	-0.00310
77.36311	-0.00471
77.39416	-0.00310
77.43555	-0.00906
77.47694	-0.00230
77.52869	-0.00487
77.59077	-0.00729
77.65286	-0.00552
77.71495	-0.00230
77.77704	-0.00697
77.83913	-0.00165
77.90122	-0.01003
77.95296	-0.00471
78.02540	-0.00375
78.08749	-0.00004
78.14958	-0.00326
78.19097	-0.00197
78.22201	-0.00020
78.25306	-0.00584
78.29445	-0.00616
78.32550	-0.00761
78.35654	-0.00471
78.38759	-0.00375
78.42898	-0.00246
78.48072	-0.00745
78.53246	-0.00729
78.58420	-0.00504
78.64629	-0.00745
78.70838	-0.00359
78.77047	-0.00568
78.84291	-0.00278
78.91534	-0.00552
78.99813	-0.00552
79.07057	-0.00874
79.12231	-0.00359
79.18440	-0.00520
79.24649	-0.00197
79.28788	-0.00552
79.33962	-0.00407
79.39136	-0.00310
79.46380	-0.00568
79.53624	-0.00729
79.60867	-0.00391
79.69146	-0.00214
79.77424	-0.00391
79.85703	-0.00584
79.92947	-0.00407
80.00190	-0.00149