Black Body Radiation Experiment Wed, Sep 23, 2020 11:44 AM
Sensor Position (Degrees)	Light Intensity (Volts)
0.00000	-0.02453
0.00000	-0.02469
0.00000	-0.02421
0.00000	-0.02485
0.00000	-0.02485
0.00000	-0.02566
0.00000	-0.01937
0.00000	-0.02662
0.00000	-0.02549
0.00000	-0.02034
0.00000	-0.02259
0.00000	-0.02662
0.00000	-0.02662
0.00000	-0.02292
0.00000	-0.02195
0.00000	-0.02501
0.00000	-0.02388
0.00000	-0.02469
0.00000	-0.01986
0.00000	-0.02098
0.00000	-0.02292
0.00000	-0.02227
0.00000	-0.02437
0.00000	-0.02421
0.00000	-0.02598
0.00000	-0.02727
0.00000	-0.02243
0.00000	-0.02179
0.00000	-0.02098
0.00000	-0.02549
0.00000	-0.02678
0.00000	-0.02131
0.00000	-0.02694
0.00000	-0.02388
0.00000	-0.02501
0.00000	-0.02566
0.00000	-0.02195
0.00000	-0.02582
0.00000	-0.02388
0.00000	-0.02227
0.00000	-0.02292
0.00000	-0.02163
0.00000	-0.02195
0.00000	-0.02453
0.00000	-0.02437
0.00000	-0.02227
0.00000	-0.02324
0.00000	-0.02630
0.00000	-0.02662
0.00000	-0.02533
0.00000	-0.02469
0.00000	-0.02485
0.00000	-0.02566
0.00000	-0.02711
0.00000	-0.02453
0.00000	-0.02372
0.00000	-0.03033
0.00000	-0.02292
0.00000	-0.02356
0.00000	-0.02340
0.00000	-0.02501
0.00000	-0.02437
0.00000	-0.02002
0.00000	-0.02066
0.00000	-0.02388
0.00000	-0.02807
0.00000	-0.02195
0.00000	-0.02485
0.00000	-0.02582
0.00000	-0.02163
0.00000	-0.02179
0.00000	-0.02195
0.00000	-0.02340
0.00000	-0.02115
0.00000	-0.02211
0.00000	-0.02404
0.00000	-0.02662
0.00000	-0.02276
0.00000	-0.02485
0.00000	-0.02598
0.00000	-0.02227
0.00000	-0.01873
0.00000	-0.02453
0.00000	-0.02163
0.00000	-0.02727
0.00000	-0.02098
0.00000	-0.02292
0.00000	-0.02227
0.00000	-0.02131
0.00000	-0.02066
0.00000	-0.01889
0.00000	-0.01905
0.00000	-0.02421
0.00000	-0.02163
0.00000	-0.02195
0.00000	-0.02372
0.00000	-0.02566
0.00000	-0.02098
0.00000	-0.02259
0.00000	-0.02147
0.00000	-0.02372
0.00000	-0.02163
0.00000	-0.01986
0.00000	-0.02018
0.00000	-0.02469
0.00000	-0.01744
0.00000	-0.01760
0.00000	-0.02630
0.00000	-0.02678
0.00000	-0.02131
0.00000	-0.01970
0.00000	-0.02243
0.00000	-0.02115
0.00000	-0.02501
0.00000	-0.02147
0.00000	-0.01953
0.00000	-0.01825
0.00000	-0.02163
0.00000	-0.02115
0.00000	-0.02082
0.00000	-0.02050
0.00000	-0.02034
0.00000	-0.01905
0.00000	-0.01970
0.00000	-0.02485
0.00000	-0.02259
0.00000	-0.01728
0.00000	-0.01567
0.00000	-0.02259
0.00000	-0.02517
0.00000	-0.01986
0.00000	-0.01776
0.00000	-0.01792
0.00000	-0.02259
0.00000	-0.02179
0.00000	-0.01776
0.00000	-0.01986
0.00000	-0.02147
0.00000	-0.02034
0.00000	-0.01905
0.00000	-0.01712
0.00000	-0.01841
0.00000	-0.01663
0.00000	-0.01921
0.00000	-0.02324
0.00000	-0.02179
0.00000	-0.01825
0.00000	-0.01825
0.00000	-0.02131
0.00000	-0.01953
0.00000	-0.02404
0.00000	-0.02501
0.00000	-0.02598
0.00000	-0.02243
0.00000	-0.01841
0.00000	-0.02066
0.00000	-0.02421
0.00000	-0.02018
0.00000	-0.01712
0.00000	-0.02018
0.00000	-0.02050
0.00000	-0.01712
0.00000	-0.01551
0.00000	-0.01825
0.00000	-0.02115
0.00000	-0.01712
0.00000	-0.01744
0.00000	-0.02259
0.00000	-0.01631
0.00000	-0.02292
0.00000	-0.02163
0.00000	-0.02388
0.00000	-0.01953
0.00000	-0.01792
0.00000	-0.02227
0.00000	-0.02018
0.00000	-0.02388
0.00000	-0.02324
0.00000	-0.02098
0.00000	-0.02227
0.00000	-0.01921
0.00000	-0.01889
0.00000	-0.01792
0.00000	-0.01825
0.00000	-0.02404
0.00000	-0.02276
0.00000	-0.01696
0.00000	-0.02179
0.00000	-0.01663
0.00000	-0.02163
0.00000	-0.02356
0.00000	-0.02034
0.00000	-0.02227
0.00000	-0.01873
0.00000	-0.02115
0.00000	-0.02211
0.00000	-0.02453
0.00000	-0.01857
0.00000	-0.01970
0.00000	-0.01921
0.00000	-0.02098
0.00000	-0.02131
0.00000	-0.01937
0.00000	-0.02098
0.00000	-0.01905
0.01035	-0.01873
0.01035	-0.01857
0.01035	-0.02050
0.01035	-0.01760
0.01035	-0.02098
0.01035	-0.02195
0.01035	-0.01680
0.02070	-0.01792
0.02070	-0.02485
0.02070	-0.02179
0.02070	-0.01937
0.02070	-0.02163
0.03104	-0.02211
0.03104	-0.02147
0.04139	-0.02340
0.07244	-0.02179
0.07244	-0.02195
0.07244	-0.02082
0.07244	-0.02018
0.07244	-0.02259
0.07244	-0.01986
0.07244	-0.01792
0.07244	-0.02469
0.07244	-0.02421
0.07244	-0.02404
0.07244	-0.02372
0.07244	-0.02517
0.07244	-0.02147
0.07244	-0.02050
0.07244	-0.02066
0.07244	-0.01905
0.07244	-0.02292
0.07244	-0.01422
0.07244	-0.01921
0.07244	-0.01986
0.07244	-0.02292
0.07244	-0.02276
0.08279	-0.02115
0.09313	-0.01825
0.09313	-0.01953
0.09313	-0.02388
0.09313	-0.01905
0.10348	-0.02131
0.10348	-0.01986
0.11383	-0.02082
0.12418	-0.01841
0.12418	-0.01792
0.13453	-0.01599
0.14487	-0.01986
0.14487	-0.02147
0.15522	-0.01760
0.15522	-0.01518
0.17592	-0.02018
0.19662	-0.02292
0.22766	-0.01680
0.26905	-0.02421
0.30010	-0.02195
0.31045	-0.02308
0.33114	-0.02147
0.35184	-0.01889
0.38288	-0.01857
0.42428	-0.02388
0.47602	-0.02356
0.50706	-0.02050
0.52776	-0.01631
0.53811	-0.02163
0.54845	-0.02437
0.57950	-0.02211
0.61054	-0.02276
0.65194	-0.02018
0.67263	-0.02066
0.70368	-0.02066
0.73472	-0.01776
0.75542	-0.01873
0.77611	-0.01792
0.79681	-0.01760
0.82786	-0.01792
0.85890	-0.01535
0.87960	-0.01631
0.90029	-0.01905
0.92099	-0.01857
0.95203	-0.01825
0.98308	-0.01551
1.02447	-0.01551
1.06586	-0.01776
1.08656	-0.02018
1.12795	-0.01663
1.15900	-0.01905
1.19004	-0.01986
1.23144	-0.02163
1.25213	-0.01776
1.27283	-0.02163
1.30387	-0.02098
1.32457	-0.02066
1.35561	-0.01970
1.37631	-0.01937
1.39701	-0.02453
1.40735	-0.01905
1.41770	-0.02034
1.42805	-0.02018
1.44875	-0.02147
1.47979	-0.01889
1.50049	-0.01841
1.53153	-0.02437
1.55223	-0.02517
1.57293	-0.01712
1.60397	-0.02195
1.64536	-0.02018
1.68676	-0.01953
1.71780	-0.01583
1.74885	-0.01970
1.76954	-0.02211
1.80059	-0.02195
1.84198	-0.01744
1.88337	-0.02517
1.91442	-0.02163
1.92476	-0.02437
1.93511	-0.01615
1.95581	-0.02614
1.96616	-0.01857
1.98685	-0.02163
2.00755	-0.02098
2.03859	-0.01841
2.05929	-0.01921
2.09034	-0.01873
2.12138	-0.01953
2.15242	-0.02276
2.18347	-0.01808
2.21451	-0.01921
2.24556	-0.02131
2.26625	-0.02163
2.30765	-0.01905
2.33869	-0.01986
2.36974	-0.02211
2.40078	-0.01986
2.42148	-0.02115
2.44217	-0.02050
2.46287	-0.01905
2.48357	-0.01825
2.51461	-0.02098
2.54566	-0.02082
2.57670	-0.01760
2.60775	-0.01825
2.63879	-0.01663
2.66983	-0.01953
2.70088	-0.02163
2.73192	-0.01873
2.76297	-0.01792
2.79401	-0.01647
2.82506	-0.01873
2.86645	-0.01970
2.90784	-0.02243
2.95958	-0.02292
2.99063	-0.01712
3.03202	-0.01808
3.05272	-0.01921
3.08376	-0.01663
3.10446	-0.01873
3.14585	-0.01583
3.17690	-0.02179
3.21829	-0.02034
3.24933	-0.02098
3.28038	-0.01873
3.31142	-0.01857
3.34247	-0.02050
3.39421	-0.02147
3.44595	-0.01760
3.48734	-0.02163
3.50804	-0.01663
3.53908	-0.02018
3.58048	-0.01970
3.61152	-0.02195
3.65291	-0.01841
3.70465	-0.02066
3.73570	-0.01776
3.76674	-0.01970
3.79779	-0.01841
3.82883	-0.01953
3.87023	-0.01841
3.90127	-0.01808
3.93231	-0.02179
3.96336	-0.01728
4.00475	-0.01841
4.03580	-0.02131
4.07719	-0.01986
4.11858	-0.01696
4.15997	-0.02211
4.21172	-0.01889
4.26346	-0.01937
4.30485	-0.02179
4.35659	-0.01953
4.41868	-0.02147
4.48077	-0.01986
4.55321	-0.02533
4.60495	-0.02614
4.65669	-0.01953
4.71878	-0.02227
4.79121	-0.01986
4.86365	-0.01921
4.93609	-0.01663
4.99818	-0.02034
5.04992	-0.02211
5.10166	-0.01825
5.14305	-0.02227
5.19479	-0.01760
5.25688	-0.02098
5.30862	-0.02098
5.36037	-0.02066
5.39141	-0.02034
5.44315	-0.01970
5.49489	-0.02179
5.54663	-0.01905
5.60872	-0.02131
5.66046	-0.02018
5.70186	-0.02453
5.76395	-0.01937
5.81569	-0.02163
5.86743	-0.02163
5.91917	-0.02098
5.98126	-0.02018
6.03300	-0.01889
6.10544	-0.01551
6.16752	-0.01889
6.23996	-0.01551
6.32275	-0.01986
6.39519	-0.01825
6.47797	-0.01889
6.56076	-0.01293
6.64354	-0.01873
6.75737	-0.01825
6.80911	-0.02018
6.88155	-0.01808
6.95399	-0.02050
7.02643	-0.01615
7.08851	-0.01857
7.15060	-0.01631
7.22304	-0.02018
7.29548	-0.01647
7.37826	-0.02388
7.45070	-0.01889
7.52314	-0.02372
7.59558	-0.01792
7.64732	-0.01728
7.70941	-0.01825
7.76115	-0.01937
7.81289	-0.01663
7.86463	-0.01857
7.92672	-0.01712
7.98881	-0.01841
8.05090	-0.01631
8.11299	-0.01744
8.18542	-0.02259
8.25786	-0.01744
8.33030	-0.01728
8.39239	-0.02372
8.46482	-0.01792
8.53726	-0.01808
8.59935	-0.01728
8.66144	-0.01760
8.73388	-0.02163
8.80631	-0.02050
8.86840	-0.01857
8.94084	-0.01647
8.99258	-0.01486
9.04432	-0.01889
9.09606	-0.01680
9.14781	-0.01970
9.19955	-0.01760
9.26164	-0.01841
9.32372	-0.01776
9.39616	-0.02034
9.45825	-0.01986
9.52034	-0.01631
9.57208	-0.02082
9.62382	-0.01937
9.67556	-0.01744
9.73765	-0.01841
9.79974	-0.02098
9.85148	-0.01986
9.91357	-0.02002
9.96531	-0.01486
10.01705	-0.01857
10.07914	-0.02034
10.13088	-0.01486
10.18262	-0.01647
10.22402	-0.01776
10.26541	-0.02098
10.30680	-0.01905
10.35854	-0.01953
10.39994	-0.01970
10.43098	-0.02147
10.47237	-0.01245
10.52412	-0.01696
10.57586	-0.01486
10.61725	-0.01889
10.67934	-0.01712
10.72073	-0.02115
10.77247	-0.01728
10.82421	-0.01422
10.88630	-0.01841
10.94839	-0.01889
11.00013	-0.01841
11.05187	-0.01728
11.09327	-0.01825
11.13466	-0.01470
11.18640	-0.01551
11.23814	-0.01857
11.28988	-0.02002
11.34162	-0.02098
11.39336	-0.01551
11.42441	-0.01293
11.46580	-0.01180
11.50719	-0.01486
11.55894	-0.01390
11.61068	-0.01551
11.65207	-0.01583
11.69346	-0.02002
11.73485	-0.01728
11.77625	-0.01390
11.81764	-0.01228
11.84868	-0.01228
11.89008	-0.01212
11.91077	-0.01502
11.94182	-0.01518
11.97286	-0.01309
12.01426	-0.01180
12.05565	-0.01615
12.08669	-0.00922
12.13843	-0.01293
12.20052	-0.01051
12.24192	-0.01019
12.27296	-0.01164
12.31435	-0.01132
12.35575	-0.00858
12.39714	-0.01051
12.44888	-0.00326
12.47992	-0.01100
12.53167	-0.00520
12.56271	-0.00810
12.61445	-0.00520
12.65584	-0.00326
12.68689	-0.00987
12.72828	-0.00117
12.74898	-0.00552
12.80072	-0.00439
12.83176	-0.00342
12.87316	-0.00036
12.90420	-0.00052
12.94559	0.00173
12.96629	-0.00004
13.00768	0.00109
13.03873	0.00495
13.06977	0.00962
13.10082	0.00672
13.14221	0.00640
13.17325	0.00769
13.20430	0.00850
13.22499	0.01301
13.24569	0.00866
13.27674	0.00737
13.30778	0.01397
13.32848	0.01317
13.34917	0.01043
13.36987	0.01430
13.40091	0.01816
13.45265	0.01607
13.50440	0.01961
13.52509	0.01961
13.55614	0.02493
13.57683	0.02799
13.61823	0.02992
13.64927	0.03347
13.69066	0.02960
13.72171	0.03314
13.75275	0.03540
13.79415	0.04104
13.84589	0.04587
13.89763	0.04426
13.95972	0.04958
14.00111	0.05779
14.06320	0.05715
14.11494	0.06343
14.15633	0.07036
14.21842	0.07455
14.28051	0.07729
14.32190	0.08019
14.38399	0.08695
14.44608	0.09452
14.49782	0.09597
14.55991	0.10145
14.61165	0.10773
14.67374	0.11385
14.72548	0.11788
14.77722	0.12078
14.82897	0.12497
14.90140	0.12706
14.94280	0.12803
15.01523	0.13125
15.07732	0.13480
15.14976	0.13109
15.20150	0.13029
15.24289	0.13174
15.28429	0.13109
15.31533	0.13254
15.35672	0.13013
15.38777	0.12803
15.42916	0.12336
15.46020	0.12239
15.50160	0.12465
15.53264	0.11982
15.57404	0.11998
15.61543	0.11547
15.65682	0.11547
15.69821	0.10789
15.71891	0.10628
15.76030	0.10499
15.80170	0.09919
15.84309	0.10113
15.88448	0.09082
15.92587	0.09243
15.96727	0.08743
16.00866	0.08325
16.07075	0.07745
16.11214	0.07712
16.15353	0.06939
16.19493	0.06955
16.22597	0.06601
16.26736	0.06375
16.30876	0.05828
16.33980	0.05248
16.38119	0.04925
16.41224	0.04780
16.44328	0.04426
16.48468	0.04619
16.53642	0.03524
16.57781	0.04152
16.61920	0.03121
16.66060	0.03331
16.70199	0.02799
16.73303	0.02670
16.77443	0.02235
16.81582	0.01945
16.85721	0.01526
16.89860	0.01720
16.94000	0.01285
16.98139	0.01317
17.03313	0.01059
17.07452	0.00995
17.12626	0.00221
17.16766	0.00238
17.20905	-0.00165
17.26079	-0.00052
17.31253	-0.00391
17.36427	-0.00262
17.41601	-0.00616
17.46776	-0.00713
17.51950	-0.00955
17.57124	-0.01067
17.62298	-0.01309
17.67472	-0.01373
17.73681	-0.01228
17.78855	-0.01631
17.85064	-0.01551
17.91273	-0.01728
17.97482	-0.01518
18.02656	-0.01760
18.06795	-0.01953
18.13004	-0.01937
18.19213	-0.02098
18.24387	-0.01825
18.29561	-0.01744
18.33700	-0.01663
18.37840	-0.02469
18.41979	-0.02115
18.47153	-0.01857
18.50257	-0.01470
18.54397	-0.01857
18.59571	-0.02034
18.63710	-0.02115
18.66815	-0.01937
18.70954	-0.02292
18.74058	-0.02098
18.78198	-0.01760
18.82337	-0.01680
18.87511	-0.01986
18.92685	-0.02131
18.96824	-0.02227
19.00964	-0.01905
19.05103	-0.02018
19.09242	-0.01825
19.14416	-0.01583
19.17521	-0.02211
19.22695	-0.01792
19.27869	-0.01825
19.32008	-0.02034
19.37182	-0.01889
19.41322	-0.02131
19.45461	-0.01631
19.50635	-0.01921
19.53739	-0.02131
19.57879	-0.01889
19.62018	-0.01647
19.65122	-0.02050
19.69262	-0.01905
19.72366	-0.01792
19.75471	-0.01825
19.79610	-0.01808
19.82714	-0.01696
19.86854	-0.01825
19.89958	-0.01953
19.94097	-0.01937
19.97202	-0.01841
20.00306	-0.01406
20.03411	-0.02002
20.06515	-0.01841
20.09620	-0.01776
20.12724	-0.01760
20.16863	-0.01970
20.19968	-0.02002
20.24107	-0.01760
20.27212	-0.01970
20.30316	-0.02002
20.34455	-0.01825
20.38595	-0.02115
20.41699	-0.02082
20.45838	-0.01841
20.49978	-0.02115
20.53082	-0.01744
20.57221	-0.01873
20.61361	-0.01921
20.65500	-0.01792
20.69639	-0.01905
20.73778	-0.02163
20.78953	-0.02002
20.83092	-0.01825
20.87231	-0.02066
20.90336	-0.01986
20.94475	-0.01937
20.97579	-0.01873
21.00684	-0.02082
21.04823	-0.01937
21.07928	-0.01680
21.13102	-0.02050
21.17241	-0.01470
21.21380	-0.01889
21.26554	-0.01889
21.31728	-0.02050
21.36902	-0.01712
21.41042	-0.02050
21.45181	-0.01712
21.49320	-0.01776
21.54494	-0.01744
21.58634	-0.01970
21.62773	-0.02517
21.65877	-0.01953
21.68982	-0.01873
21.73121	-0.01647
21.76226	-0.01583
21.80365	-0.02243
21.83469	-0.01438
21.86574	-0.01808
21.89678	-0.02340
21.91748	-0.01744
21.93818	-0.02066
21.95887	-0.01647
21.97957	-0.01808
22.00026	-0.01647
22.03131	-0.02066
22.05201	-0.02292
22.08305	-0.01808
22.10375	-0.01470
22.13479	-0.01921
22.15549	-0.02324
22.18653	-0.01760
22.20723	-0.01486
22.24862	-0.01663
22.26932	-0.01760
22.30036	-0.01696
22.31071	-0.01889
22.33141	-0.01921
22.35210	-0.01680
22.37280	-0.01728
22.40384	-0.01341
22.43489	-0.01792
22.47628	-0.01760
22.50733	-0.01857
22.53837	-0.01937
22.56942	-0.01873
22.59011	-0.01808
22.62116	-0.01680
22.65220	-0.01776
22.68325	-0.01792
22.71429	-0.01615
22.73499	-0.01390
22.76603	-0.01615
22.80742	-0.01728
22.83847	-0.01760
22.87986	-0.01712
22.92125	-0.02002
22.96265	-0.01647
23.01439	-0.01744
23.06613	-0.02115
23.10752	-0.01438
23.14891	-0.01825
23.19031	-0.01454
23.23170	-0.01583
23.28344	-0.01663
23.32483	-0.01486
23.35588	-0.01567
23.38692	-0.02066
23.41797	-0.01970
23.45936	-0.01921
23.50075	-0.02082
23.54215	-0.02018
23.58354	-0.02356
23.61458	-0.01776
23.63528	-0.01776
23.66632	-0.01937
23.68702	-0.01744
23.72841	-0.01808
23.75946	-0.01567
23.79050	-0.01873
23.82155	-0.01728
23.85259	-0.01776
23.88364	-0.01857
23.91468	-0.02243
23.95607	-0.01873
23.98712	-0.01599
24.02851	-0.01631
24.06990	-0.01792
24.11130	-0.01680
24.15269	-0.01792
24.20443	-0.02050
24.23548	-0.01889
24.28722	-0.01857
24.32861	-0.02082
24.37000	-0.01663
24.43209	-0.01792
24.47348	-0.01728
24.52522	-0.01696
24.58731	-0.01841
24.62871	-0.01937
24.68045	-0.02066
24.72184	-0.01631
24.77358	-0.02050
24.82532	-0.02147
24.87706	-0.02098
24.92880	-0.02002
24.98055	-0.01953
25.03229	-0.01937
25.07368	-0.02131
25.12542	-0.01680
25.16681	-0.01696
25.20821	-0.01889
25.25995	-0.01518
25.31169	-0.01905
25.36343	-0.01454
25.41517	-0.01825
25.46691	-0.01680
25.51865	-0.01744
25.57039	-0.02018
25.61179	-0.01873
25.66353	-0.01728
25.71527	-0.01905
25.76701	-0.02034
25.81875	-0.01937
25.87049	-0.01825
25.92223	-0.01905
25.97397	-0.01696
26.02571	-0.02195
26.06711	-0.01728
26.10850	-0.01825
26.14989	-0.01744
26.20163	-0.01647
26.25337	-0.02082
26.29477	-0.01937
26.34651	-0.01776
26.37755	-0.01776
26.41894	-0.02163
26.44999	-0.01712
26.50173	-0.01647
26.54312	-0.01937
26.57417	-0.01470
26.61556	-0.01486
26.65695	-0.01132
26.70869	-0.01583
26.75009	-0.01792
26.79148	-0.01116
26.82252	-0.01744
26.85357	-0.01551
26.88461	-0.01438
26.92601	-0.01615
26.95705	-0.01921
26.99844	-0.01438
27.03984	-0.01953
27.08123	-0.01712
27.12262	-0.01518
27.16401	-0.01631
27.20541	-0.01970
27.23645	-0.01792
27.27784	-0.02034
27.31924	-0.01776
27.35028	-0.01873
27.39168	-0.01615
27.42272	-0.01873
27.47446	-0.01792
27.52620	-0.02211
27.56759	-0.01857
27.60899	-0.01696
27.65038	-0.01583
27.68142	-0.01712
27.72282	-0.01438
27.76421	-0.01680
27.80560	-0.01583
27.84700	-0.01535
27.88839	-0.01486
27.92978	-0.01486
27.96083	-0.01712
27.99187	-0.01390
28.04361	-0.01454
28.09535	-0.01953
28.13675	-0.01970
28.18849	-0.01180
28.22988	-0.01599
28.26092	-0.01486
28.28162	-0.01728
28.31266	-0.01518
28.34371	-0.01889
28.38510	-0.01293
28.42649	-0.01792
28.45754	-0.01518
28.49893	-0.01583
28.52998	-0.01502
28.56102	-0.01261
28.59207	-0.01841
28.63346	-0.01196
28.68520	-0.01486
28.72659	-0.01551
28.76799	-0.01599
28.80938	-0.01663
28.84042	-0.01696
28.88182	-0.01261
28.92321	-0.01325
28.96460	-0.01486
28.99565	-0.01438
29.02669	-0.01551
29.06808	-0.01390
29.10948	-0.01583
29.14052	-0.01422
29.18191	-0.01148
29.21296	-0.01857
29.25435	-0.01438
29.28539	-0.01454
29.32679	-0.01470
29.39923	-0.01454
29.45097	-0.01277
29.50271	-0.01293
29.56480	-0.01438
29.62689	-0.01212
29.68897	-0.01422
29.72002	-0.01180
29.80280	-0.01454
29.86489	-0.01470
29.91663	-0.01309
29.98907	-0.01438
30.04081	-0.01341
30.09255	-0.01647
30.15464	-0.01422
30.21673	-0.01019
30.27882	-0.01019
30.33056	-0.01261
30.37196	-0.01277
30.43404	-0.01261
30.49613	-0.01615
30.56857	-0.01518
30.64101	-0.01293
30.69275	-0.01277
30.74449	-0.01712
30.80658	-0.01212
30.85832	-0.01760
30.92041	-0.01825
30.96180	-0.01647
31.00320	-0.01486
31.05494	-0.01583
31.10668	-0.01841
31.14807	-0.01615
31.18946	-0.01680
31.23086	-0.01116
31.29295	-0.01663
31.34469	-0.01857
31.39643	-0.01454
31.45852	-0.01067
31.52061	-0.01228
31.57235	-0.01502
31.62409	-0.01663
31.67583	-0.01486
31.72757	-0.01245
31.77931	-0.01535
31.84140	-0.01470
31.89314	-0.01776
31.94488	-0.01164
31.98627	-0.01373
32.02767	-0.01245
32.06906	-0.01309
32.10010	-0.01744
32.12080	-0.01551
32.14150	-0.01293
32.16219	-0.01599
32.19324	-0.01309
32.21393	-0.01551
32.24498	-0.01148
32.27602	-0.01277
32.29672	-0.01567
32.32776	-0.01277
32.34846	-0.01631
32.36916	-0.01502
32.37951	-0.01518
32.40020	-0.01357
32.41055	-0.01760
32.43125	-0.01502
32.44159	-0.01309
32.46229	-0.01261
32.49334	-0.01180
32.52438	-0.01535
32.55542	-0.01100
32.59682	-0.01438
32.62786	-0.01760
32.64856	-0.01486
32.67960	-0.00955
32.71065	-0.01309
32.75204	-0.01422
32.79343	-0.01325
32.82448	-0.01647
32.84517	-0.01470
32.87622	-0.01454
32.89692	-0.01551
32.92796	-0.01196
32.94866	-0.01696
32.96935	-0.01422
32.99005	-0.01889
33.00040	-0.01470
33.02109	-0.01245
33.04179	-0.01261
33.06249	-0.01277
33.09353	-0.01245
33.12458	-0.01164
33.16597	-0.01309
33.20736	-0.01196
33.24875	-0.02002
33.30050	-0.01599
33.34189	-0.01535
33.38328	-0.02131
33.41433	-0.01422
33.45572	-0.01373
33.49711	-0.01228
33.52816	-0.01518
33.56955	-0.01180
33.60059	-0.01583
33.64199	-0.01647
33.68338	-0.01599
33.71442	-0.01518
33.75582	-0.01696
33.78686	-0.01373
33.81790	-0.01776
33.84895	-0.01470
33.87999	-0.01728
33.92139	-0.01744
33.95243	-0.01889
33.99382	-0.01486
34.03522	-0.01792
34.06626	-0.01454
34.09731	-0.01551
34.11800	-0.01728
34.14905	-0.01373
34.16974	-0.01857
34.20079	-0.01567
34.22148	-0.01953
34.25253	-0.01196
34.29392	-0.01712
34.33531	-0.01535
34.37671	-0.01438
34.41810	-0.01245
34.45949	-0.01599
34.50089	-0.01470
34.54228	-0.01647
34.59402	-0.01518
34.66646	-0.01518
34.73889	-0.01615
34.79064	-0.01825
34.86307	-0.01583
34.93551	-0.01970
34.99760	-0.01357
35.05969	-0.01744
35.11143	-0.01357
35.16317	-0.01841
35.22526	-0.01889
35.27700	-0.01567
35.33909	-0.01728
35.40118	-0.01970
35.45292	-0.01647
35.50466	-0.01535
35.56675	-0.01808
35.61849	-0.02098
35.68058	-0.01857
35.73232	-0.01486
35.78406	-0.01921
35.83580	-0.01663
35.87720	-0.01776
35.91859	-0.01454
35.95998	-0.01970
36.00137	-0.01583
36.04277	-0.02179
36.09451	-0.01615
36.13590	-0.01905
36.16695	-0.01921
36.20834	-0.01760
36.24973	-0.02098
36.29112	-0.01535
36.34286	-0.01744
36.40495	-0.02115
36.45669	-0.02082
36.51878	-0.01889
36.58087	-0.01970
36.64296	-0.01986
36.68436	-0.01808
36.72575	-0.01953
36.76714	-0.02276
36.80853	-0.01808
36.84993	-0.02050
36.88097	-0.02115
36.90167	-0.01808
36.93271	-0.01825
36.95341	-0.02050
36.97410	-0.02372
36.98445	-0.02115
37.00515	-0.02195
37.01550	-0.02002
37.02585	-0.01438
37.04654	-0.01647
37.06724	-0.01873
37.09828	-0.01857
37.12933	-0.01502
37.16037	-0.01792
37.19142	-0.01905
37.23281	-0.02066
37.27420	-0.02098
37.32594	-0.01905
37.37768	-0.02147
37.43977	-0.02098
37.49151	-0.01760
37.54326	-0.01454
37.60534	-0.02211
37.66743	-0.01599
37.72952	-0.01712
37.80196	-0.01889
37.85370	-0.01970
37.89509	-0.02259
37.94684	-0.01615
37.99858	-0.01889
38.03997	-0.01696
38.09171	-0.01873
38.14345	-0.01921
38.19519	-0.01792
38.24693	-0.01696
38.28833	-0.01518
38.34007	-0.01744
38.38146	-0.01905
38.43320	-0.02002
38.48494	-0.01663
38.53668	-0.01873
38.57808	-0.01454
38.61947	-0.01583
38.67121	-0.01696
38.72295	-0.01841
38.76434	-0.01937
38.80574	-0.02082
38.84713	-0.01825
38.88852	-0.01905
38.92991	-0.01857
38.97131	-0.01825
39.02305	-0.01776
39.06444	-0.01647
39.10583	-0.01792
39.15757	-0.01808
39.20932	-0.01808
39.25071	-0.01953
39.29210	-0.01857
39.34384	-0.01470
39.40593	-0.01470
39.47837	-0.01486
39.51976	-0.01776
39.58185	-0.01647
39.64394	-0.01953
39.70603	-0.01357
39.75777	-0.01808
39.81986	-0.01615
39.88195	-0.01631
39.93369	-0.02227
39.97508	-0.01535
40.04752	-0.01776
40.09926	-0.01680
40.15100	-0.02066
40.21309	-0.01841
40.26483	-0.01406
40.32692	-0.02131
40.39936	-0.01841
40.47179	-0.01680
40.53388	-0.01986
40.61667	-0.01760
40.68911	-0.01953
40.76154	-0.01792
40.82363	-0.02308
40.88572	-0.02227
40.94781	-0.01921
40.98920	-0.01825
41.05129	-0.01502
41.09269	-0.01760
41.14443	-0.02195
41.18582	-0.01889
41.24791	-0.01905
41.29965	-0.01680
41.36174	-0.01970
41.41348	-0.01615
41.46522	-0.02002
41.50661	-0.01744
41.55836	-0.01825
41.61010	-0.01631
41.67219	-0.01953
41.72393	-0.01808
41.77567	-0.01857
41.83776	-0.01680
41.89985	-0.01841
41.95159	-0.01470
42.01368	-0.01599
42.06542	-0.01792
42.12751	-0.01518
42.17925	-0.02018
42.22064	-0.01744
42.27238	-0.02082
42.31377	-0.01825
42.35517	-0.01889
42.39656	-0.02002
42.44830	-0.01986
42.48969	-0.02034
42.55178	-0.02147
42.61387	-0.01744
42.68631	-0.01970
42.75875	-0.01986
42.81049	-0.01663
42.87258	-0.01986
42.93467	-0.01873
43.00710	-0.02034
43.08989	-0.01680
43.17267	-0.01615
43.24511	-0.01825
43.31755	-0.01502
43.36929	-0.01953
43.42103	-0.01535
43.47277	-0.02211
43.53486	-0.01873
43.59695	-0.01792
43.66939	-0.01905
43.74182	-0.02082
43.81426	-0.01873
43.85566	-0.02324
43.94879	-0.02372
44.00053	-0.02018
44.06262	-0.02147
44.12471	-0.01663
44.16610	-0.02002
44.20749	-0.01696
44.23854	-0.02131
44.27993	-0.01921
44.30063	-0.02163
44.32132	-0.02179
44.34202	-0.01937
44.35237	-0.02082
44.37306	-0.01792
44.38341	-0.01873
44.41446	-0.02115
44.44550	-0.02324
44.47655	-0.01792
44.51794	-0.01873
44.55933	-0.02050
44.60073	-0.02050
44.65247	-0.02034
44.70421	-0.01873
44.75595	-0.01776
44.81804	-0.01663
44.85943	-0.01776
44.91117	-0.01986
44.96291	-0.01551
45.01465	-0.02195
45.07674	-0.02179
45.14918	-0.01551
45.21127	-0.01921
45.28371	-0.01970
45.34580	-0.01841
45.41823	-0.01567
45.46997	-0.01889
45.52171	-0.01841
45.57346	-0.01808
45.60450	-0.01792
45.64589	-0.02259
45.68729	-0.01712
45.71833	-0.02131
45.74937	-0.02066
45.78042	-0.01760
45.81146	-0.02259
45.85286	-0.01760
45.88390	-0.01841
45.92529	-0.01647
45.96669	-0.01889
46.00808	-0.02131
46.03912	-0.01986
46.07017	-0.01857
46.11156	-0.01921
46.15295	-0.01776
46.19435	-0.02179
46.23574	-0.01680
46.27713	-0.02163
46.30818	-0.01776
46.33922	-0.01663
46.38061	-0.01776
46.42201	-0.01663
46.46340	-0.01599
46.50479	-0.01760
46.53584	-0.02018
46.56688	-0.01760
46.61862	-0.01808
46.66002	-0.02034
46.71176	-0.02018
46.74280	-0.02131
46.78419	-0.02002
46.81524	-0.02082
46.84628	-0.01776
46.87733	-0.01551
46.90837	-0.01760
46.92907	-0.02195
46.96011	-0.01696
46.98081	-0.01712
47.01185	-0.02324
47.04290	-0.01744
47.07394	-0.02018
47.10499	-0.01841
47.13603	-0.02163
47.17743	-0.01873
47.20847	-0.01873
47.24986	-0.01970
47.28091	-0.01905
47.33265	-0.01776
47.38439	-0.02018
47.44648	-0.02404
47.49822	-0.02050
47.54996	-0.02034
47.59135	-0.01953
47.64309	-0.02340
47.69484	-0.02018
47.73623	-0.02147
47.76727	-0.02549
47.82936	-0.02211
47.89145	-0.02098
47.93284	-0.01680
47.99493	-0.02227
48.04667	-0.01889
48.08807	-0.02066
48.12946	-0.01970
48.18120	-0.02195
48.23294	-0.01825
48.27433	-0.02098
48.31573	-0.02131
48.35712	-0.02131
48.39851	-0.02211
48.42956	-0.02098
48.48130	-0.02115
48.52269	-0.01792
48.58478	-0.01615
48.63652	-0.02018
48.68826	-0.01937
48.74000	-0.01776
48.79174	-0.02437
48.85383	-0.01841
48.91592	-0.02034
48.96766	-0.01986
49.02975	-0.01857
49.09184	-0.02276
49.14358	-0.02098
49.19532	-0.01953
49.22637	-0.02163
49.26776	-0.01599
49.29881	-0.02002
49.32985	-0.02098
49.37124	-0.02276
49.40229	-0.02018
49.43333	-0.01873
49.47473	-0.02340
49.52647	-0.01808
49.56786	-0.02163
49.62995	-0.01760
49.67134	-0.02147
49.73343	-0.01905
49.78517	-0.02517
49.85761	-0.01889
49.90935	-0.02163
49.96109	-0.01889
50.00248	-0.02002
50.04388	-0.01760
50.09562	-0.01696
50.15771	-0.02115
50.19910	-0.02002
50.24049	-0.02098
50.28188	-0.01921
50.31293	-0.01712
50.34397	-0.01776
50.37502	-0.02163
50.41641	-0.02018
50.46815	-0.02147
50.51989	-0.02002
50.58198	-0.01953
50.65442	-0.02082
50.71651	-0.01857
50.77860	-0.01921
50.83034	-0.01776
50.88208	-0.01970
50.94417	-0.01615
50.99591	-0.01986
51.05800	-0.01986
51.10974	-0.01808
51.15113	-0.02259
51.19253	-0.01792
51.24427	-0.01728
51.29601	-0.00922
51.33740	-0.01744
51.37879	-0.02034
51.42019	-0.01680
51.45123	-0.01808
51.48228	-0.01631
51.53402	-0.01825
51.57541	-0.01309
51.61680	-0.01970
51.64785	-0.01873
51.70994	-0.01857
51.76168	-0.01970
51.80307	-0.01696
51.84446	-0.01696
51.89620	-0.01857
51.93760	-0.01680
51.98934	-0.01921
52.03073	-0.01825
52.07212	-0.02018
52.11352	-0.01647
52.14456	-0.01873
52.17560	-0.01937
52.21700	-0.01808
52.24804	-0.02131
52.28943	-0.02292
52.32048	-0.02340
52.36187	-0.01760
52.38257	-0.02050
52.41361	-0.01905
52.43431	-0.02292
52.46535	-0.02259
52.49640	-0.01841
52.52744	-0.01905
52.55849	-0.02098
52.59988	-0.01599
52.63093	-0.02066
52.67232	-0.01905
52.71371	-0.01953
52.75510	-0.02002
52.79650	-0.02421
52.84824	-0.01744
52.88963	-0.01905
52.94137	-0.02082
52.98276	-0.01986
53.03451	-0.02082
53.08625	-0.02179
53.13799	-0.02259
53.18973	-0.02195
53.23112	-0.01680
53.27251	-0.02131
53.30356	-0.02115
53.33460	-0.01841
53.35530	-0.01841
53.37600	-0.02179
53.39669	-0.01696
53.40704	-0.01663
53.42774	-0.02276
53.45878	-0.02115
53.50017	-0.01889
53.55191	-0.01937
53.61400	-0.02115
53.66574	-0.01986
53.72783	-0.01921
53.77958	-0.02066
53.84166	-0.01760
53.90375	-0.01583
53.96584	-0.01937
54.02793	-0.01728
54.07967	-0.01728
54.13141	-0.01841
54.17281	-0.01680
54.23490	-0.01792
54.29698	-0.01535
54.35907	-0.01535
54.42116	-0.02356
54.45221	-0.01889
54.49360	-0.01953
54.54534	-0.01728
54.58673	-0.01712
54.63848	-0.01470
54.70056	-0.01841
54.74196	-0.01873
54.79370	-0.01567
54.84544	-0.01696
54.88683	-0.02131
54.92822	-0.01680
54.95927	-0.02034
55.00066	-0.01647
55.04206	-0.01953
55.07310	-0.01712
55.11449	-0.01583
55.16623	-0.01470
55.19728	-0.01406
55.23867	-0.01551
55.26972	-0.01486
55.30076	-0.01647
55.33180	-0.01325
55.36285	-0.01422
55.40424	-0.01760
55.44563	-0.01663
55.48703	-0.01551
55.51807	-0.02243
55.52842	-0.01712
55.58016	-0.01470
55.62155	-0.01857
55.66295	-0.01518
55.69399	-0.01486
55.72504	-0.01518
55.74573	-0.01986
55.77678	-0.01100
55.80782	-0.01583
55.83887	-0.01712
55.88026	-0.01325
55.92165	-0.01422
55.96304	-0.01470
56.00444	-0.01760
56.03548	-0.01905
56.06653	-0.01631
56.09757	-0.01825
56.11827	-0.01889
56.14931	-0.01905
56.18036	-0.01728
56.21140	-0.01937
56.23210	-0.01808
56.26314	-0.01373
56.29419	-0.01309
56.32523	-0.01551
56.35628	-0.01132
56.38732	-0.01680
56.42871	-0.01454
56.47011	-0.01438
56.50115	-0.01261
56.53220	-0.01647
56.56324	-0.01760
56.59428	-0.01325
56.61498	-0.01937
56.63568	-0.01680
56.64603	-0.01776
56.66672	-0.01921
56.68742	-0.01647
56.69777	-0.01937
56.72881	-0.01583
56.74951	-0.01647
56.77020	-0.01438
56.79090	-0.01277
56.81160	-0.01583
56.83229	-0.01728
56.85299	-0.01776
56.88403	-0.01680
56.91508	-0.01792
56.94612	-0.01599
56.98752	-0.01792
57.02891	-0.01631
57.08065	-0.01148
57.13239	-0.01680
57.17378	-0.01857
57.21518	-0.01567
57.25657	-0.01438
57.29796	-0.01454
57.33935	-0.01599
57.40144	-0.01470
57.44284	-0.01390
57.50493	-0.01470
57.55667	-0.01647
57.59806	-0.01760
57.64980	-0.01599
57.70154	-0.01663
57.76363	-0.01390
57.82572	-0.01406
57.88781	-0.01889
57.92920	-0.01454
57.98094	-0.01776
58.03268	-0.01035
58.08442	-0.01422
58.14651	-0.01631
58.20860	-0.01792
58.27069	-0.01631
58.32243	-0.01535
58.37417	-0.01261
58.43626	-0.01518
58.47766	-0.01599
58.51905	-0.01567
58.56044	-0.01277
58.60183	-0.01261
58.65358	-0.01728
58.69497	-0.01583
58.72601	-0.01454
58.75706	-0.01470
58.79845	-0.01341
58.83984	-0.01551
58.87089	-0.01406
58.91228	-0.01261
58.94332	-0.01470
58.98472	-0.01422
59.02611	-0.01535
59.06750	-0.01325
59.10890	-0.01212
59.16064	-0.01615
59.22273	-0.01180
59.28482	-0.01825
59.34690	-0.01502
59.39865	-0.01357
59.45039	-0.01551
59.51248	-0.01422
59.57456	-0.01696
59.64700	-0.01390
59.71944	-0.01261
59.78153	-0.01470
59.84362	-0.01180
59.89536	-0.01357
59.95745	-0.01245
60.01954	-0.01470
60.08163	-0.01373
60.14372	-0.01261
60.18511	-0.01905
60.23685	-0.01341
60.28859	-0.01535
60.35068	-0.01422
60.41277	-0.01245
60.46451	-0.01535
60.51625	-0.01599
60.56799	-0.01454
60.63008	-0.01696
60.68182	-0.01325
60.74391	-0.01341
60.81635	-0.01760
60.87844	-0.01245
60.94053	-0.01180
61.00262	-0.00955
61.07505	-0.01615
61.13714	-0.00971
61.20958	-0.01035
61.27167	-0.01357
61.33376	-0.01357
61.39585	-0.01438
61.43724	-0.01599
61.48898	-0.01921
61.55107	-0.01261
61.60281	-0.01583
61.65455	-0.01019
61.71664	-0.01293
61.78908	-0.01180
61.85117	-0.01583
61.91326	-0.01551
61.97535	-0.01792
62.04778	-0.00938
62.09952	-0.01357
62.17196	-0.01390
62.23405	-0.01180
62.30649	-0.00842
62.36858	-0.01357
62.44102	-0.01100
62.50310	-0.01132
62.55485	-0.01100
62.60659	-0.01116
62.66868	-0.01502
62.72042	-0.01647
62.77216	-0.01438
62.82390	-0.01712
62.86529	-0.01438
62.91703	-0.01051
62.95843	-0.01228
62.99982	-0.01406
63.04121	-0.01470
63.07226	-0.01663
63.10330	-0.00874
63.13434	-0.01535
63.17574	-0.01261
63.21713	-0.01341
63.25852	-0.01293
63.31026	-0.00955
63.35166	-0.01051
63.38270	-0.01212
63.40340	-0.01051
63.42409	-0.00971
63.44479	-0.01293
63.46549	-0.00681
63.49653	-0.01309
63.53792	-0.01406
63.57932	-0.01567
63.65175	-0.01583
63.72419	-0.01228
63.80698	-0.01132
63.87941	-0.01341
63.95185	-0.01293
64.03464	-0.01212
64.11742	-0.01325
64.17951	-0.01615
64.27265	-0.00777
64.34508	-0.00890
64.41752	-0.01067
64.47961	-0.01518
64.52100	-0.00810
64.57274	-0.01341
64.63483	-0.00922
64.68657	-0.01261
64.71762	-0.01212
64.75901	-0.01180
64.79006	-0.00955
64.82110	-0.00761
64.85214	-0.00697
64.89354	-0.00987
64.94528	-0.01019
64.98667	-0.00955
65.03841	-0.00826
65.09015	-0.01164
65.12120	-0.01019
65.16259	-0.01003
65.19364	-0.01116
65.23503	-0.01196
65.27642	-0.01245
65.30747	-0.01132
65.33851	-0.00842
65.37990	-0.00971
65.42130	-0.01373
65.46269	-0.00761
65.50408	-0.00971
65.55582	-0.00745
65.60756	-0.01051
65.65930	-0.01116
65.71105	-0.01309
65.77313	-0.01180
65.82488	-0.00745
65.87662	-0.00294
65.91801	-0.01035
65.96975	-0.00810
66.00079	-0.00745
66.04219	-0.01019
66.07323	-0.00681
66.11462	-0.00938
66.14567	-0.00745
66.17671	-0.00761
66.21811	-0.00616
66.25950	-0.00616
66.29054	-0.00777
66.32159	-0.00826
66.36298	-0.00874
66.40437	-0.00858
66.43542	-0.00890
66.47681	-0.00890
66.50786	-0.00552
66.53890	-0.00504
66.56995	-0.00520
66.61134	-0.00922
66.65273	-0.00616
66.71482	-0.00632
66.78726	-0.00616
66.85970	-0.00471
66.91144	-0.00842
66.96318	-0.00262
67.00457	-0.00584
67.03561	-0.01083
67.07701	-0.00665
67.11840	-0.00326
67.17014	-0.00906
67.23223	-0.00278
67.28397	-0.00262
67.34606	-0.00616
67.40815	-0.00407
67.44954	-0.00826
67.50128	-0.00777
67.55302	-0.00665
67.59442	-0.00439
67.64616	-0.00423
67.68755	-0.00745
67.71860	-0.00487
67.74964	-0.00375
67.79103	-0.00149
67.83243	-0.00777
67.87382	-0.00632
67.91521	-0.00246
67.95660	-0.00197
67.99800	-0.00826
68.03939	-0.00504
68.08078	-0.00165
68.12217	-0.00552
68.15322	-0.00536
68.19461	-0.00890
68.22566	-0.00455
68.25670	-0.00584
68.29809	-0.00181
68.33949	-0.00600
68.37053	-0.00181
68.40158	-0.00375
68.44297	-0.00632
68.48436	-0.00697
68.52575	-0.00536
68.57750	-0.00294
68.63958	-0.00713
68.69133	-0.00391
68.74307	-0.00214
68.78446	-0.00294
68.82585	-0.00326
68.86725	-0.00310
68.91899	0.00012
68.96038	-0.00359
69.00177	-0.00278
69.04316	-0.00552
69.08456	0.00093
69.12595	-0.00020
69.15699	0.00012
69.18804	-0.00471
69.22943	-0.00133
69.26048	-0.00230
69.28117	-0.00165
69.35361	-0.00069
69.40535	-0.00230
69.47779	0.00028
69.53988	-0.00085
69.59162	-0.00133
69.64336	-0.00133
69.68475	-0.00471
69.71580	-0.00165
69.75719	0.00157
69.79858	-0.00101
69.82963	0.00044
69.87102	0.00028
69.91241	-0.00085
69.96415	0.00076
70.01589	-0.00342
70.05729	0.00012
70.09868	0.00093
70.14007	-0.00423
70.18147	-0.00439
70.23321	-0.00149
70.28495	-0.00133
70.34704	0.00012
70.41947	0.00173
70.49191	0.00270
70.55400	0.00254
70.61609	0.00221
70.66783	0.00205
70.72992	0.00141
70.79201	0.00189
70.85410	-0.00101
70.90584	0.00318
70.94723	-0.00342
70.98863	0.00238
71.01967	0.00157
71.06106	0.00318
71.10246	0.00221
71.14385	0.00689
71.18524	0.00205
71.22663	0.00157
71.26803	0.00205
71.31977	0.00737
71.37151	0.00463
71.43360	0.00415
71.48534	0.00672
71.53708	0.00995
71.58882	0.00544
71.63021	0.00415
71.67161	0.00785
71.71300	0.00705
71.74404	0.00769
71.76474	0.00672
71.80613	0.00624
71.83718	0.00463
71.86822	0.01075
71.90961	0.00769
71.96136	0.00962
72.00275	0.00930
72.04414	0.00995
72.07519	0.00495
72.11658	0.01188
72.14762	0.01269
72.17867	0.01107
72.20971	0.01414
72.24076	0.01059
72.27180	0.01333
72.30285	0.01559
72.33389	0.01430
72.35459	0.01333
72.40633	0.01494
72.45807	0.01800
72.52016	0.01720
72.58225	0.01623
72.63399	0.01800
72.67538	0.01655
72.71677	0.01784
72.75817	0.01349
72.79956	0.01317
72.83060	0.01703
72.87200	0.01494
72.91339	0.01671
72.95478	0.01381
72.99618	0.01333
73.03757	0.01140
73.08931	0.01333
73.14105	0.01252
73.17209	0.01220
73.24453	0.00785
73.28592	0.01252
73.33767	0.01365
73.39975	0.00672
73.45150	0.01011
73.50324	0.00850
73.55498	0.00383
73.60672	0.00850
73.66881	0.00834
73.71020	0.01059
73.76194	0.00866
73.79299	0.00383
73.82403	0.00527
73.86542	0.00544
73.89647	0.00608
73.92751	0.00576
73.95856	0.00495
73.99995	0.00608
74.04134	0.00672
74.07239	0.00640
74.11378	0.00431
74.15517	0.01107
74.19657	0.00286
74.24831	0.00576
74.30005	0.00672
74.34144	0.00544
74.39318	0.00624
74.42423	0.00866
74.45527	0.00527
74.47597	0.00624
74.49666	0.00866
74.52771	0.00576
74.55875	0.00479
74.57945	0.00576
74.61049	0.00705
74.64154	0.00656
74.68293	0.00817
74.71398	0.00656
74.75537	0.00689
74.80711	0.00238
74.84850	0.00463
74.91059	0.00544
74.97268	0.00608
75.04512	0.00914
75.11756	0.00479
75.18999	0.00801
75.27278	0.00495
75.35556	0.00640
75.43835	0.00125
75.52114	0.00286
75.59357	0.00721
75.66601	0.00366
75.73845	0.00640
75.79019	0.01140
75.84193	0.01027
75.90402	0.00850
75.94541	0.00431
75.99715	0.00930
76.03854	0.01075
76.09029	0.00672
76.13168	0.00753
76.18342	0.00898
76.23516	0.00817
76.29725	0.00737
76.36969	0.01043
76.44212	0.00495
76.50421	0.00898
76.57665	0.00914
76.66978	0.00850
76.74222	0.00866
76.82501	0.00769
76.89745	0.00753
76.96988	0.00383
77.03197	0.01236
77.09406	0.01107
77.17685	0.00769
77.23894	0.00366
77.30102	0.01075
77.36311	0.00962
77.43555	0.00979
77.50799	0.01043
77.60112	0.00866
77.68391	0.01043
77.75635	0.00962
77.82878	0.00898
77.89087	0.00656
77.96331	0.00979
78.03575	0.01043
78.09784	0.01027
78.18062	0.00624
78.24271	0.01365
78.31515	0.01204
78.38759	0.00334
78.44967	0.00914
78.52211	0.00689
78.59455	0.01011
78.67733	0.01107
78.74977	0.01011
78.83256	0.01011
78.92569	0.01043
79.00848	0.01140
79.09126	0.01059
79.19474	0.00962
79.28788	0.01107
79.38101	0.01317
79.47415	0.01011
79.56728	0.00656
79.65007	0.01091
79.74320	0.00882
79.81564	0.01043
79.89842	0.00946
79.96051	0.01172
80.03295	0.01204